timestamps,TP9,AF7,AF8,TP10,Right AUX
2024-06-20 17:33:28.179,892.578125,662.59765625,-296.875,-133.30078125,0.0
2024-06-20 17:33:28.183,-903.3203125,-845.21484375,-1000.0,-1000.0,0.0
2024-06-20 17:33:28.187,-258.30078125,-140.13671875,-141.11328125,-216.796875,0.0
2024-06-20 17:33:28.191,-1000.0,-1000.0,-815.91796875,-821.2890625,0.0
2024-06-20 17:33:28.195,155.2734375,16.11328125,175.78125,231.93359375,0.0
2024-06-20 17:33:28.199,-763.18359375,-768.5546875,-1000.0,-1000.0,0.0
2024-06-20 17:33:28.203,187.5,199.21875,-283.69140625,-310.05859375,0.0
2024-06-20 17:33:28.207,-1000.0,-1000.0,-825.1953125,-828.61328125,0.0
2024-06-20 17:33:28.211,-271.484375,-274.4140625,295.41015625,375.0,0.0
2024-06-20 17:33:28.214,-803.7109375,-809.5703125,-1000.0,-1000.0,0.0
2024-06-20 17:33:28.218,288.57421875,381.34765625,-664.55078125,-747.55859375,0.0
2024-06-20 17:33:28.222,-1000.0,-1000.0,942.87109375,851.5625,0.0
2024-06-20 17:33:28.226,-356.93359375,-494.140625,720.21484375,869.62890625,0.0
2024-06-20 17:33:28.230,-884.765625,-964.84375,-825.1953125,-661.62109375,0.0
2024-06-20 17:33:28.234,734.86328125,863.76953125,-1000.0,-1000.0,0.0
2024-06-20 17:33:28.238,-881.34765625,-720.21484375,224.609375,124.51171875,0.0
2024-06-20 17:33:28.242,-815.91796875,-928.22265625,-827.1484375,-794.921875,0.0
2024-06-20 17:33:28.246,743.65234375,614.74609375,-98.14453125,26.3671875,0.0
2024-06-20 17:33:28.250,-855.95703125,-829.1015625,-1000.0,-1000.0,0.0
2024-06-20 17:33:28.254,-147.94921875,-68.359375,-214.35546875,-245.1171875,0.0
2024-06-20 17:33:28.257,-1000.0,-1000.0,-819.82421875,-819.82421875,0.0
2024-06-20 17:33:28.261,35.64453125,-90.8203125,221.6796875,237.79296875,0.0
2024-06-20 17:33:28.265,-767.578125,-781.73828125,-1000.0,-1000.0,0.0
2024-06-20 17:33:28.269,197.265625,209.9609375,-357.91015625,-423.828125,0.0
2024-06-20 17:33:28.273,-1000.0,-1000.0,-849.609375,-875.0,0.0
2024-06-20 17:33:28.277,-275.87890625,-275.87890625,384.27734375,495.1171875,0.0
2024-06-20 17:33:28.281,-809.5703125,-816.40625,-1000.0,-1000.0,0.0
2024-06-20 17:33:28.285,398.4375,472.65625,-819.3359375,-894.53125,0.0
2024-06-20 17:33:28.289,-1000.0,-1000.0,748.53515625,646.97265625,0.0
2024-06-20 17:33:28.293,-465.33203125,-554.19921875,884.765625,-982.91015625,0.0
2024-06-20 17:33:28.296,-951.66015625,990.72265625,-635.25390625,-458.984375,0.0
2024-06-20 17:33:28.300,869.140625,949.70703125,-1000.0,-1000.0,0.0
2024-06-20 17:33:28.304,-679.6875,-524.4140625,77.1484375,0.0,0.0
2024-06-20 17:33:28.308,-985.3515625,-1000.0,-812.01171875,-795.41015625,0.0
2024-06-20 17:33:28.312,531.73828125,315.91796875,-2.9296875,119.140625,0.0
2024-06-20 17:33:28.316,-810.05859375,-781.73828125,-1000.0,-1000.0,0.0
2024-06-20 17:33:28.320,-21.97265625,83.49609375,-241.2109375,-253.90625,0.0
2024-06-20 17:33:28.324,-1000.0,-1000.0,-822.265625,-817.3828125,0.0
2024-06-20 17:33:28.328,-88.8671875,-208.0078125,237.3046875,238.28125,0.0
2024-06-20 17:33:28.332,-777.34375,-793.9453125,-1000.0,-1000.0,0.0
2024-06-20 17:33:28.336,208.0078125,236.81640625,-436.03515625,-513.18359375,0.0
2024-06-20 17:33:28.339,-1000.0,-1000.0,-885.25390625,-924.8046875,0.0
2024-06-20 17:33:28.343,-276.85546875,-277.34375,502.44140625,599.609375,0.0
2024-06-20 17:33:28.347,-819.82421875,-827.63671875,-1000.0,-973.14453125,0.0
2024-06-20 17:33:28.351,502.44140625,567.87109375,-935.05859375,-1000.0,0.0
2024-06-20 17:33:28.355,-1000.0,-1000.0,588.8671875,455.078125,0.0
2024-06-20 17:33:28.359,-570.3125,-729.98046875,992.67578125,-876.953125,0.0
2024-06-20 17:33:28.363,974.12109375,830.078125,-475.5859375,-274.4140625,0.0
2024-06-20 17:33:28.367,986.328125,-921.875,-1000.0,-1000.0,0.0
2024-06-20 17:33:28.371,-470.21484375,-314.94140625,-57.6171875,-138.18359375,0.0
2024-06-20 17:33:28.375,-1000.0,-1000.0,-813.4765625,-809.08203125,0.0
2024-06-20 17:33:28.379,309.08203125,123.53515625,101.07421875,207.51953125,0.0
2024-06-20 17:33:28.382,-778.3203125,-767.08984375,-1000.0,-1000.0,0.0
2024-06-20 17:33:28.386,111.81640625,192.87109375,-255.37109375,-269.04296875,0.0
2024-06-20 17:33:28.390,-1000.0,-1000.0,-805.17578125,-799.31640625,0.0
2024-06-20 17:33:28.394,-200.68359375,-252.9296875,222.65625,255.859375,0.0
2024-06-20 17:33:28.398,-851.5625,-859.86328125,-1000.0,-1000.0,0.0
2024-06-20 17:33:28.402,133.30078125,205.56640625,-369.62890625,-438.4765625,0.0
2024-06-20 17:33:28.406,-1000.0,-1000.0,-967.28515625,980.46875,0.0
2024-06-20 17:33:28.410,-274.90234375,-383.30078125,591.796875,720.21484375,0.0
2024-06-20 17:33:28.414,-835.44921875,-889.16015625,-941.89453125,-826.171875,0.0
2024-06-20 17:33:28.418,598.14453125,704.1015625,-1000.0,-1000.0,0.0
2024-06-20 17:33:28.421,-1000.0,-878.90625,380.859375,250.9765625,0.0
2024-06-20 17:33:28.425,-691.89453125,-923.828125,-904.296875,-821.2890625,0.0
2024-06-20 17:33:28.429,863.76953125,582.03125,-305.17578125,-135.25390625,0.0
2024-06-20 17:33:28.433,-896.484375,-828.125,-1000.0,-1000.0,0.0
2024-06-20 17:33:28.437,-247.55859375,-86.9140625,-137.6953125,-216.796875,0.0
2024-06-20 17:33:28.441,-1000.0,-1000.0,-816.40625,-821.77734375,0.0
2024-06-20 17:33:28.445,136.71875,-44.921875,172.36328125,232.421875,0.0
2024-06-20 17:33:28.449,-763.671875,-774.90234375,-1000.0,-1000.0,0.0
2024-06-20 17:33:28.453,188.96484375,205.078125,-290.0390625,-320.80078125,0.0
2024-06-20 17:33:28.457,-1000.0,-1000.0,-827.1484375,-832.03125,0.0
2024-06-20 17:33:28.461,-271.97265625,-273.4375,314.453125,391.6015625,0.0
2024-06-20 17:33:28.464,-803.7109375,-809.5703125,-1000.0,-1000.0,0.0
2024-06-20 17:33:28.468,297.8515625,378.41796875,-689.94140625,-759.27734375,0.0
2024-06-20 17:33:28.472,-1000.0,-1000.0,917.96875,839.84375,0.0
2024-06-20 17:33:28.476,-364.74609375,-493.1640625,736.328125,878.41796875,0.0
2024-06-20 17:33:28.480,-888.18359375,-978.02734375,-808.10546875,-649.4140625,0.0
2024-06-20 17:33:28.484,741.2109375,898.92578125,-1000.0,-1000.0,0.0
2024-06-20 17:33:28.488,-866.69921875,-642.578125,209.9609375,113.28125,0.0
2024-06-20 17:33:28.492,-843.75,-995.60546875,-835.44921875,-798.828125,0.0
2024-06-20 17:33:28.496,709.47265625,520.01953125,-125.48828125,9.27734375,0.0
2024-06-20 17:33:28.500,-850.09765625,-811.5234375,-1000.0,-1000.0,0.0
2024-06-20 17:33:28.504,-134.27734375,-25.87890625,-212.890625,-242.67578125,0.0
2024-06-20 17:33:28.507,-1000.0,-1000.0,-822.265625,-821.2890625,0.0
2024-06-20 17:33:28.511,14.16015625,-122.55859375,223.6328125,237.79296875,0.0
2024-06-20 17:33:28.515,-769.53125,-784.66796875,-1000.0,-1000.0,0.0
2024-06-20 17:33:28.519,199.21875,212.890625,-365.234375,-431.15234375,0.0
2024-06-20 17:33:28.523,-1000.0,-1000.0,-854.00390625,-880.37109375,0.0
2024-06-20 17:33:28.527,-275.87890625,-275.87890625,421.38671875,520.5078125,0.0
2024-06-20 17:33:28.531,-810.546875,-818.359375,-1000.0,-1000.0,0.0
2024-06-20 17:33:28.535,410.15625,488.76953125,-821.77734375,-899.4140625,0.0
2024-06-20 17:33:28.539,-1000.0,-1000.0,750.0,638.671875,0.0
2024-06-20 17:33:28.543,-471.6796875,-588.37890625,900.390625,-962.890625,0.0
2024-06-20 17:33:28.546,-955.078125,978.02734375,-607.421875,-421.38671875,0.0
2024-06-20 17:33:28.550,875.0,941.40625,-1000.0,-1000.0,0.0
2024-06-20 17:33:28.554,-662.59765625,-535.15625,63.96484375,-12.20703125,0.0
2024-06-20 17:33:28.558,-1000.0,-1000.0,-809.5703125,-794.43359375,0.0
2024-06-20 17:33:28.562,498.046875,284.1796875,15.625,135.7421875,0.0
2024-06-20 17:33:28.566,-807.6171875,-784.66796875,-1000.0,-1000.0,0.0
2024-06-20 17:33:28.570,-31.25,16.6015625,-243.1640625,-255.859375,0.0
2024-06-20 17:33:28.574,-1000.0,-1000.0,-822.265625,-816.89453125,0.0
2024-06-20 17:33:28.578,-94.7265625,-159.1796875,238.28125,238.28125,0.0
2024-06-20 17:33:28.582,-779.296875,-790.52734375,-1000.0,-1000.0,0.0
2024-06-20 17:33:28.586,208.984375,217.7734375,-463.37890625,-532.71484375,0.0
2024-06-20 17:33:28.589,-1000.0,-1000.0,-897.4609375,-935.05859375,0.0
2024-06-20 17:33:28.593,-276.85546875,-297.36328125,495.1171875,602.5390625,0.0
2024-06-20 17:33:28.597,-820.80078125,-837.40234375,-1000.0,-969.7265625,0.0
2024-06-20 17:33:28.601,510.7421875,578.125,-949.21875,-1000.0,0.0
2024-06-20 17:33:28.605,-1000.0,-1000.0,554.19921875,424.8046875,0.0
2024-06-20 17:33:28.609,-590.33203125,-740.72265625,-984.375,-864.74609375,0.0
2024-06-20 17:33:28.613,957.03125,789.0625,-450.68359375,-253.90625,0.0
2024-06-20 17:33:28.617,-992.67578125,-864.74609375,-1000.0,-1000.0,0.0
2024-06-20 17:33:28.621,-443.359375,-197.75390625,-38.57421875,-120.1171875,0.0
2024-06-20 17:33:28.625,-1000.0,-1000.0,-804.6875,-802.24609375,0.0
2024-06-20 17:33:28.629,309.08203125,173.828125,126.46484375,217.28515625,0.0
2024-06-20 17:33:28.632,-776.85546875,-759.27734375,-1000.0,-1000.0,0.0
2024-06-20 17:33:28.636,123.53515625,186.5234375,-255.859375,-268.06640625,0.0
2024-06-20 17:33:28.640,-1000.0,-1000.0,-817.87109375,-812.98828125,0.0
2024-06-20 17:33:28.644,-227.05078125,-271.97265625,264.16015625,301.7578125,0.0
2024-06-20 17:33:28.648,-795.8984375,-804.19921875,-1000.0,-1000.0,0.0
2024-06-20 17:33:28.652,221.6796875,296.875,-563.4765625,-626.953125,0.0
2024-06-20 17:33:28.656,-1000.0,-1000.0,-963.8671875,988.28125,0.0
2024-06-20 17:33:28.660,-274.4140625,-382.32421875,628.90625,748.53515625,0.0
2024-06-20 17:33:28.664,-833.984375,-904.78515625,-919.921875,-802.24609375,0.0
2024-06-20 17:33:28.668,606.93359375,768.5546875,-1000.0,-1000.0,0.0
2024-06-20 17:33:28.671,-1000.0,-784.66796875,378.90625,243.1640625,0.0
2024-06-20 17:33:28.675,-716.30859375,-979.00390625,-900.390625,-819.82421875,0.0
2024-06-20 17:33:28.679,838.8671875,536.62109375,-294.921875,-124.51171875,0.0
2024-06-20 17:33:28.683,-891.6015625,-833.0078125,-1000.0,-1000.0,0.0
2024-06-20 17:33:28.687,-239.74609375,-135.25390625,-161.1328125,-229.98046875,0.0
2024-06-20 17:33:28.691,-1000.0,-1000.0,-820.80078125,-824.70703125,0.0
2024-06-20 17:33:28.695,121.09375,-73.2421875,178.22265625,234.375,0.0
2024-06-20 17:33:28.699,-764.6484375,-784.1796875,-1000.0,-1000.0,0.0
2024-06-20 17:33:28.703,190.4296875,209.47265625,-292.96875,-327.1484375,0.0
2024-06-20 17:33:28.707,-1000.0,-1000.0,-828.125,-834.9609375,0.0
2024-06-20 17:33:28.711,-272.4609375,-273.4375,336.9140625,416.9921875,0.0
2024-06-20 17:33:28.714,-803.7109375,-810.05859375,-1000.0,-1000.0,0.0
2024-06-20 17:33:28.718,309.5703125,389.6484375,-705.56640625,-771.97265625,0.0
2024-06-20 17:33:28.722,-1000.0,-1000.0,900.87890625,823.2421875,0.0
2024-06-20 17:33:28.726,-369.62890625,-501.953125,762.20703125,903.3203125,0.0
2024-06-20 17:33:28.730,-891.11328125,-967.28515625,-777.83203125,-611.81640625,0.0
2024-06-20 17:33:28.734,751.46484375,858.88671875,-1000.0,-1000.0,0.0
2024-06-20 17:33:28.738,-844.7265625,-670.41015625,193.359375,96.19140625,0.0
2024-06-20 17:33:28.742,-877.44140625,-1000.0,-836.9140625,-800.78125,0.0
2024-06-20 17:33:28.746,665.0390625,410.15625,-130.859375,5.37109375,0.0
2024-06-20 17:33:28.750,-839.84375,-795.8984375,-1000.0,-1000.0,0.0
2024-06-20 17:33:28.754,-113.28125,-8.7890625,-215.33203125,-241.69921875,0.0
2024-06-20 17:33:28.757,-1000.0,-1000.0,-823.2421875,-822.265625,0.0
2024-06-20 17:33:28.761,3.41796875,-94.23828125,229.00390625,238.28125,0.0
2024-06-20 17:33:28.765,-769.04296875,-776.85546875,-1000.0,-1000.0,0.0
2024-06-20 17:33:28.769,199.70703125,208.984375,-378.90625,-443.84765625,0.0
2024-06-20 17:33:28.773,-1000.0,-1000.0,-857.91015625,-883.7890625,0.0
2024-06-20 17:33:28.777,-276.3671875,-276.3671875,402.34375,506.8359375,0.0
2024-06-20 17:33:28.781,-811.03515625,-818.359375,-1000.0,-1000.0,0.0
2024-06-20 17:33:28.785,417.48046875,494.140625,-836.42578125,-915.0390625,0.0
2024-06-20 17:33:28.789,-1000.0,-1000.0,719.23828125,601.07421875,0.0
2024-06-20 17:33:28.793,-485.3515625,-574.70703125,917.96875,-941.89453125,0.0
2024-06-20 17:33:28.796,-961.42578125,980.46875,-583.49609375,-386.71875,0.0
2024-06-20 17:33:28.800,881.34765625,958.0078125,-1000.0,-1000.0,0.0
2024-06-20 17:33:28.804,-656.73828125,-527.34375,38.57421875,-41.015625,0.0
2024-06-20 17:33:28.808,-1000.0,-1000.0,-807.12890625,-795.8984375,0.0
2024-06-20 17:33:28.812,492.1875,370.60546875,43.9453125,164.55078125,0.0
2024-06-20 17:33:28.816,-808.59375,-805.6640625,-1000.0,-1000.0,0.0
2024-06-20 17:33:28.820,-34.1796875,-54.6875,-246.09375,-259.27734375,0.0
2024-06-20 17:33:28.824,-1000.0,-1000.0,-820.80078125,-815.4296875,0.0
2024-06-20 17:33:28.828,-110.83984375,-210.44921875,237.79296875,237.79296875,0.0
2024-06-20 17:33:28.832,-783.203125,-810.546875,-1000.0,-1000.0,0.0
2024-06-20 17:33:28.836,211.42578125,227.5390625,-478.515625,-540.52734375,0.0
2024-06-20 17:33:28.839,-1000.0,-1000.0,-905.76171875,-939.94140625,0.0
2024-06-20 17:33:28.843,-276.85546875,-294.43359375,511.71875,611.81640625,0.0
2024-06-20 17:33:28.847,-821.77734375,-848.14453125,-1000.0,-965.33203125,0.0
2024-06-20 17:33:28.851,521.97265625,635.25390625,-948.73046875,-1000.0,0.0
2024-06-20 17:33:28.855,-1000.0,-990.72265625,546.38671875,415.52734375,0.0
2024-06-20 17:33:28.859,-597.16796875,-730.95703125,-961.42578125,-850.5859375,0.0
2024-06-20 17:33:28.863,948.2421875,825.68359375,-400.390625,-206.0546875,0.0
2024-06-20 17:33:28.867,-977.05078125,-888.18359375,-1000.0,-1000.0,0.0
2024-06-20 17:33:28.871,-407.71484375,-231.4453125,-73.73046875,-164.55078125,0.0
2024-06-20 17:33:28.875,-1000.0,-1000.0,-809.5703125,-810.05859375,0.0
2024-06-20 17:33:28.879,279.296875,126.953125,129.8828125,223.14453125,0.0
2024-06-20 17:33:28.882,-773.4375,-762.6953125,-1000.0,-1000.0,0.0
2024-06-20 17:33:28.886,139.16015625,189.94140625,-254.8828125,-267.08984375,0.0
2024-06-20 17:33:28.890,-1000.0,-1000.0,-817.87109375,-812.98828125,0.0
2024-06-20 17:33:28.894,-244.140625,-275.390625,263.18359375,300.78125,0.0
2024-06-20 17:33:28.898,-798.828125,-805.6640625,-1000.0,-1000.0,0.0
2024-06-20 17:33:28.902,223.6328125,372.55859375,-552.734375,-625.0,0.0
2024-06-20 17:33:28.906,-1000.0,-1000.0,-953.125,989.74609375,0.0
2024-06-20 17:33:28.910,-273.92578125,-410.64453125,617.1875,746.09375,0.0
2024-06-20 17:33:28.914,-834.47265625,-888.18359375,-917.48046875,-792.96875,0.0
2024-06-20 17:33:28.918,609.375,710.9375,-1000.0,-1000.0,0.0
2024-06-20 17:33:28.921,-1000.0,-857.421875,327.1484375,193.359375,0.0
2024-06-20 17:33:28.925,-729.4921875,-964.35546875,-890.13671875,-815.91796875,0.0
2024-06-20 17:33:28.929,820.80078125,534.1796875,-273.4375,-102.05078125,0.0
2024-06-20 17:33:28.933,-882.8125,-828.61328125,-1000.0,-1000.0,0.0
2024-06-20 17:33:28.937,-222.16796875,-120.1171875,-168.9453125,-231.93359375,0.0
2024-06-20 17:33:28.941,-1000.0,-1000.0,-820.80078125,-824.21875,0.0
2024-06-20 17:33:28.945,127.44140625,-48.828125,187.5,234.86328125,0.0
2024-06-20 17:33:28.949,-762.6953125,-778.3203125,-1000.0,-1000.0,0.0
2024-06-20 17:33:28.953,189.453125,206.54296875,-297.36328125,-337.40234375,0.0
2024-06-20 17:33:28.957,-1000.0,-1000.0,-829.1015625,-838.8671875,0.0
2024-06-20 17:33:28.961,-272.94921875,-274.4140625,337.40234375,425.29296875,0.0
2024-06-20 17:33:28.964,-804.19921875,-810.546875,-1000.0,-1000.0,0.0
2024-06-20 17:33:28.968,317.87109375,397.94921875,-718.75,-793.9453125,0.0
2024-06-20 17:33:28.972,-1000.0,-1000.0,886.23046875,793.45703125,0.0
2024-06-20 17:33:28.976,-382.8125,-503.90625,770.5078125,918.9453125,0.0
2024-06-20 17:33:28.980,-904.78515625,-997.0703125,-769.53125,-589.84375,0.0
2024-06-20 17:33:28.984,789.55078125,963.8671875,-1000.0,-1000.0,0.0
2024-06-20 17:33:28.988,-849.12109375,-657.2265625,215.33203125,114.2578125,0.0
2024-06-20 17:33:28.992,-762.6953125,-723.6328125,-916.015625,-897.94921875,0.0
2024-06-20 17:33:28.996,826.66015625,867.67578125,-216.796875,-116.2109375,0.0
2024-06-20 17:33:29.000,-861.328125,-868.65234375,-1000.0,-1000.0,0.0
2024-06-20 17:33:29.004,-97.16796875,-18.5546875,-225.09765625,-247.0703125,0.0
2024-06-20 17:33:29.007,-1000.0,-1000.0,-824.70703125,-823.73046875,0.0
2024-06-20 17:33:29.011,-9.27734375,-166.50390625,227.5390625,237.79296875,0.0
2024-06-20 17:33:29.015,-769.53125,-795.8984375,-1000.0,-1000.0,0.0
2024-06-20 17:33:29.019,200.68359375,219.23828125,-385.7421875,-445.3125,0.0
2024-06-20 17:33:29.023,-1000.0,-1000.0,-861.328125,-885.25390625,0.0
2024-06-20 17:33:29.027,-276.85546875,-274.90234375,414.0625,519.04296875,0.0
2024-06-20 17:33:29.031,-812.01171875,-821.2890625,-1000.0,-1000.0,0.0
2024-06-20 17:33:29.035,431.15234375,524.90234375,-841.30859375,-927.734375,0.0
2024-06-20 17:33:29.039,-1000.0,-1000.0,711.9140625,581.54296875,0.0
2024-06-20 17:33:29.043,-499.0234375,-572.265625,928.22265625,-930.6640625,0.0
2024-06-20 17:33:29.046,-970.21484375,993.65234375,-564.94140625,-365.72265625,0.0
2024-06-20 17:33:29.050,893.06640625,938.96484375,-1000.0,-1000.0,0.0
2024-06-20 17:33:29.054,-632.8125,-521.484375,24.4140625,-61.5234375,0.0
2024-06-20 17:33:29.058,-1000.0,-1000.0,-811.03515625,-799.31640625,0.0
2024-06-20 17:33:29.062,452.1484375,248.046875,29.78515625,160.15625,0.0
2024-06-20 17:33:29.066,-797.8515625,-776.85546875,-1000.0,-1000.0,0.0
2024-06-20 17:33:29.070,20.99609375,117.67578125,-243.65234375,-257.8125,0.0
2024-06-20 17:33:29.074,-1000.0,-1000.0,-821.77734375,-815.91796875,0.0
2024-06-20 17:33:29.078,-129.8828125,-248.046875,238.28125,238.28125,0.0
2024-06-20 17:33:29.082,-781.73828125,-801.26953125,-1000.0,-1000.0,0.0
2024-06-20 17:33:29.086,211.9140625,236.328125,-476.5625,-539.0625,0.0
2024-06-20 17:33:29.089,-1000.0,-1000.0,-906.73828125,-942.3828125,0.0
2024-06-20 17:33:29.093,-276.3671875,-273.92578125,525.87890625,623.046875,0.0
2024-06-20 17:33:29.097,-822.75390625,-836.42578125,-1000.0,-939.453125,0.0
2024-06-20 17:33:29.101,525.390625,615.72265625,-977.05078125,-1000.0,0.0
2024-06-20 17:33:29.105,-1000.0,-997.55859375,505.859375,361.81640625,0.0
2024-06-20 17:33:29.109,-615.234375,-755.37109375,-949.21875,-836.9140625,0.0
2024-06-20 17:33:29.113,932.6171875,798.828125,-380.859375,-178.22265625,0.0
2024-06-20 17:33:29.117,-963.37890625,-884.765625,-1000.0,-1000.0,0.0
2024-06-20 17:33:29.121,-379.39453125,-233.88671875,-98.14453125,-184.08203125,0.0
2024-06-20 17:33:29.125,-1000.0,-1000.0,-812.98828125,-813.4765625,0.0
2024-06-20 17:33:29.129,240.234375,108.3984375,139.6484375,225.5859375,0.0
2024-06-20 17:33:29.132,-769.53125,-764.16015625,-1000.0,-1000.0,0.0
2024-06-20 17:33:29.136,156.25,191.40625,-255.37109375,-267.08984375,0.0
2024-06-20 17:33:29.140,-1000.0,-1000.0,-817.87109375,-812.98828125,0.0
2024-06-20 17:33:29.144,-251.953125,-273.4375,266.6015625,309.08203125,0.0
2024-06-20 17:33:29.148,-799.31640625,-803.7109375,-1000.0,-1000.0,0.0
2024-06-20 17:33:29.152,224.12109375,330.56640625,-593.75,-649.90234375,0.0
2024-06-20 17:33:29.156,-1000.0,-1000.0,-991.2109375,959.47265625,0.0
2024-06-20 17:33:29.160,-280.2734375,-380.859375,654.296875,784.1796875,0.0
2024-06-20 17:33:29.164,-842.7734375,-897.94921875,-890.625,-748.046875,0.0
2024-06-20 17:33:29.168,632.32421875,764.16015625,-1000.0,-1000.0,0.0
2024-06-20 17:33:29.171,-990.234375,-787.109375,321.77734375,170.41015625,0.0
2024-06-20 17:33:29.175,-750.48828125,-977.05078125,-881.34765625,-812.98828125,0.0
2024-06-20 17:33:29.179,799.8046875,523.92578125,-253.41796875,-86.9140625,0.0
2024-06-20 17:33:29.183,-875.0,-818.359375,-1000.0,-1000.0,0.0
2024-06-20 17:33:29.187,-199.21875,-73.73046875,-166.50390625,-232.91015625,0.0
2024-06-20 17:33:29.191,-1000.0,-1000.0,-818.84765625,-823.73046875,0.0
2024-06-20 17:33:29.195,101.5625,-64.94140625,194.82421875,235.3515625,0.0
2024-06-20 17:33:29.199,-763.18359375,-777.34375,-1000.0,-1000.0,0.0
2024-06-20 17:33:29.203,191.40625,207.03125,-316.89453125,-348.6328125,0.0
2024-06-20 17:33:29.207,-1000.0,-1000.0,-835.44921875,-842.7734375,0.0
2024-06-20 17:33:29.211,-273.92578125,-274.90234375,342.7734375,436.03515625,0.0
2024-06-20 17:33:29.214,-805.17578125,-812.98828125,-1000.0,-1000.0,0.0
2024-06-20 17:33:29.218,332.03125,431.15234375,-722.16796875,-807.12890625,0.0
2024-06-20 17:33:29.222,-1000.0,-1000.0,875.0,770.01953125,0.0
2024-06-20 17:33:29.226,-411.1328125,-534.66796875,793.45703125,943.359375,0.0
2024-06-20 17:33:29.230,-915.52734375,-987.3046875,-738.76953125,-555.17578125,0.0
2024-06-20 17:33:29.234,789.0625,895.01953125,-1000.0,-1000.0,0.0
2024-06-20 17:33:29.238,-795.8984375,-621.58203125,156.73828125,53.7109375,0.0
2024-06-20 17:33:29.242,-911.62109375,-1000.0,-826.171875,-797.8515625,0.0
2024-06-20 17:33:29.246,623.53515625,395.99609375,-86.9140625,50.78125,0.0
2024-06-20 17:33:29.250,-829.58984375,-798.828125,-1000.0,-1000.0,0.0
2024-06-20 17:33:29.254,-86.9140625,-14.16015625,-225.5859375,-246.09375,0.0
2024-06-20 17:33:29.257,-1000.0,-1000.0,-823.73046875,-819.82421875,0.0
2024-06-20 17:33:29.261,-15.625,-148.4375,232.421875,238.28125,0.0
2024-06-20 17:33:29.265,-769.53125,-789.55078125,-1000.0,-1000.0,0.0
2024-06-20 17:33:29.269,201.171875,216.30859375,-398.92578125,-458.984375,0.0
2024-06-20 17:33:29.273,-1000.0,-1000.0,-867.67578125,-894.53125,0.0
2024-06-20 17:33:29.277,-276.3671875,-275.390625,446.2890625,550.78125,0.0
2024-06-20 17:33:29.281,-812.01171875,-817.3828125,-1000.0,-1000.0,0.0
2024-06-20 17:33:29.285,431.640625,495.1171875,-884.27734375,-972.16796875,0.0
2024-06-20 17:33:29.289,-1000.0,-1000.0,655.2734375,516.6015625,0.0
2024-06-20 17:33:29.293,-504.39453125,-549.8046875,962.40234375,-901.85546875,0.0
2024-06-20 17:33:29.296,-974.609375,-991.69921875,-522.4609375,-323.73046875,0.0
2024-06-20 17:33:29.300,898.92578125,913.0859375,-1000.0,-1000.0,0.0
2024-06-20 17:33:29.304,-622.55859375,-554.19921875,1.953125,-78.125,0.0
2024-06-20 17:33:29.308,-1000.0,-1000.0,-810.546875,-799.31640625,0.0
2024-06-20 17:33:29.312,438.4765625,250.0,51.26953125,176.26953125,0.0
2024-06-20 17:33:29.316,-793.45703125,-769.53125,-1000.0,-1000.0,0.0
2024-06-20 17:33:29.320,38.57421875,124.0234375,-246.09375,-260.7421875,0.0
2024-06-20 17:33:29.324,-1000.0,-1000.0,-821.2890625,-815.4296875,0.0
2024-06-20 17:33:29.328,-124.0234375,-138.18359375,246.58203125,254.8828125,0.0
2024-06-20 17:33:29.332,-778.80859375,-775.390625,-1000.0,-1000.0,0.0
2024-06-20 17:33:29.336,210.44921875,211.9140625,-507.32421875,-567.3828125,0.0
2024-06-20 17:33:29.339,-1000.0,-1000.0,-923.33984375,-963.37890625,0.0
2024-06-20 17:33:29.343,-276.85546875,-316.40625,544.43359375,660.64453125,0.0
2024-06-20 17:33:29.347,-825.1953125,-854.98046875,-997.55859375,-900.390625,0.0
2024-06-20 17:33:29.351,541.9921875,637.6953125,-993.65234375,-1000.0,0.0
2024-06-20 17:33:29.355,-1000.0,-973.6328125,486.328125,330.56640625,0.0
2024-06-20 17:33:29.359,-626.46484375,-796.38671875,-950.1953125,-838.37890625,0.0
2024-06-20 17:33:29.363,917.96875,716.796875,-395.5078125,-196.2890625,0.0
2024-06-20 17:33:29.367,-937.5,-837.40234375,-1000.0,-1000.0,0.0
2024-06-20 17:33:29.371,-328.125,-53.7109375,-60.546875,-141.11328125,0.0
2024-06-20 17:33:29.375,-1000.0,-1000.0,-806.640625,-804.6875,0.0
2024-06-20 17:33:29.379,218.26171875,36.1328125,137.6953125,220.703125,0.0
2024-06-20 17:33:29.382,-766.6015625,-760.25390625,-1000.0,-1000.0,0.0
2024-06-20 17:33:29.386,161.1328125,190.91796875,-270.01953125,-287.59765625,0.0
2024-06-20 17:33:29.390,-1000.0,-1000.0,-822.75390625,-819.82421875,0.0
2024-06-20 17:33:29.394,-258.30078125,-272.4609375,277.34375,330.56640625,0.0
2024-06-20 17:33:29.398,-802.24609375,-807.12890625,-1000.0,-1000.0,0.0
2024-06-20 17:33:29.402,227.05078125,337.890625,-614.2578125,-681.640625,0.0
2024-06-20 17:33:29.406,-1000.0,-1000.0,997.55859375,936.03515625,0.0
2024-06-20 17:33:29.410,-308.59375,-437.98828125,644.53125,780.76171875,0.0
2024-06-20 17:33:29.414,-859.86328125,-937.98828125,-906.25,-762.6953125,0.0
2024-06-20 17:33:29.418,665.52734375,833.0078125,-1000.0,-1000.0,0.0
2024-06-20 17:33:29.421,-959.9609375,-725.09765625,316.89453125,172.36328125,0.0
2024-06-20 17:33:29.425,-762.20703125,-973.6328125,-873.53515625,-807.6171875,0.0
2024-06-20 17:33:29.429,791.50390625,545.41015625,-232.421875,-64.94140625,0.0
2024-06-20 17:33:29.433,-870.60546875,-817.87109375,-1000.0,-1000.0,0.0
2024-06-20 17:33:29.437,-187.5,-82.03125,-180.6640625,-235.3515625,0.0
2024-06-20 17:33:29.441,-1000.0,-1000.0,-819.82421875,-822.75390625,0.0
2024-06-20 17:33:29.445,96.19140625,-24.90234375,209.47265625,235.83984375,0.0
2024-06-20 17:33:29.449,-762.6953125,-770.99609375,-1000.0,-1000.0,0.0
2024-06-20 17:33:29.453,191.40625,202.63671875,-321.77734375,-357.421875,0.0
2024-06-20 17:33:29.457,-1000.0,-1000.0,-836.9140625,-847.65625,0.0
2024-06-20 17:33:29.461,-274.4140625,-277.34375,366.69921875,461.9140625,0.0
2024-06-20 17:33:29.464,-806.640625,-817.87109375,-1000.0,-1000.0,0.0
2024-06-20 17:33:29.468,347.65625,487.79296875,-717.7734375,-810.546875,0.0
2024-06-20 17:33:29.472,-1000.0,-1000.0,886.71875,771.97265625,0.0
2024-06-20 17:33:29.476,-428.22265625,-577.63671875,789.55078125,946.77734375,0.0
2024-06-20 17:33:29.480,-928.22265625,982.91015625,-738.76953125,-548.33984375,0.0
2024-06-20 17:33:29.484,816.40625,944.82421875,-1000.0,-1000.0,0.0
2024-06-20 17:33:29.488,-760.7421875,-565.4296875,148.4375,46.38671875,0.0
2024-06-20 17:33:29.492,-926.26953125,-1000.0,-821.2890625,-796.875,0.0
2024-06-20 17:33:29.496,607.421875,406.25,-67.3828125,62.5,0.0
2024-06-20 17:33:29.500,-823.73046875,-789.0625,-1000.0,-1000.0,0.0
2024-06-20 17:33:29.504,-68.84765625,28.80859375,-227.5390625,-247.55859375,0.0
2024-06-20 17:33:29.507,-1000.0,-1000.0,-822.75390625,-819.82421875,0.0
2024-06-20 17:33:29.511,-23.92578125,-116.2109375,235.83984375,238.76953125,0.0
2024-06-20 17:33:29.515,-769.04296875,-777.34375,-1000.0,-1000.0,0.0
2024-06-20 17:33:29.519,201.66015625,209.9609375,-412.109375,-476.5625,0.0
2024-06-20 17:33:29.523,-1000.0,-1000.0,-872.55859375,-903.3203125,0.0
2024-06-20 17:33:29.527,-276.85546875,-276.3671875,442.3828125,554.19921875,0.0
2024-06-20 17:33:29.531,-814.453125,-822.75390625,-1000.0,-1000.0,0.0
2024-06-20 17:33:29.535,451.171875,521.484375,-889.6484375,-980.95703125,0.0
2024-06-20 17:33:29.539,-1000.0,-1000.0,648.92578125,503.41796875,0.0
2024-06-20 17:33:29.543,-534.66796875,-640.625,955.078125,-900.87890625,0.0
2024-06-20 17:33:29.546,998.046875,932.6171875,-533.69140625,-323.73046875,0.0
2024-06-20 17:33:29.550,944.82421875,-996.09375,-1000.0,-1000.0,0.0
2024-06-20 17:33:29.554,-557.6171875,-461.9140625,-5.37109375,-84.9609375,0.0
2024-06-20 17:33:29.558,-1000.0,-1000.0,-806.640625,-799.8046875,0.0
2024-06-20 17:33:29.562,420.8984375,296.875,82.03125,192.3828125,0.0
2024-06-20 17:33:29.566,-791.015625,-779.296875,-1000.0,-1000.0,0.0
2024-06-20 17:33:29.570,50.78125,111.328125,-249.51171875,-261.71875,0.0
2024-06-20 17:33:29.574,-1000.0,-1000.0,-819.3359375,-814.453125,0.0
2024-06-20 17:33:29.578,-164.0625,-258.30078125,238.28125,244.62890625,0.0
2024-06-20 17:33:29.582,-786.62109375,-807.12890625,-1000.0,-1000.0,0.0
2024-06-20 17:33:29.586,215.33203125,238.28125,-510.25390625,-573.2421875,0.0
2024-06-20 17:33:29.589,-1000.0,-1000.0,-928.22265625,-973.14453125,0.0
2024-06-20 17:33:29.593,-275.87890625,-305.6640625,561.5234375,681.15234375,0.0
2024-06-20 17:33:29.597,-827.63671875,-861.81640625,-985.83984375,-882.32421875,0.0
2024-06-20 17:33:29.601,560.546875,685.05859375,-994.140625,-1000.0,0.0
2024-06-20 17:33:29.605,-1000.0,-934.08203125,477.5390625,325.1953125,0.0
2024-06-20 17:33:29.609,-636.71875,-780.76171875,-925.29296875,-831.0546875,0.0
2024-06-20 17:33:29.613,915.52734375,786.62109375,-337.890625,-162.59765625,0.0
2024-06-20 17:33:29.617,-937.98828125,-879.8828125,-1000.0,-1000.0,0.0
2024-06-20 17:33:29.621,-327.1484375,-228.515625,-119.62890625,-199.21875,0.0
2024-06-20 17:33:29.625,-1000.0,-1000.0,-813.4765625,-816.89453125,0.0
2024-06-20 17:33:29.629,205.56640625,107.91015625,166.015625,228.02734375,0.0
2024-06-20 17:33:29.632,-765.13671875,-763.671875,-1000.0,-1000.0,0.0
2024-06-20 17:33:29.636,174.8046875,191.40625,-271.484375,-276.85546875,0.0
2024-06-20 17:33:29.640,-1000.0,-1000.0,-820.80078125,-816.89453125,0.0
2024-06-20 17:33:29.644,-268.06640625,-275.87890625,283.203125,343.75,0.0
2024-06-20 17:33:29.648,-803.22265625,-808.10546875,-1000.0,-1000.0,0.0
2024-06-20 17:33:29.652,250.0,392.08984375,-612.3046875,-684.5703125,0.0
2024-06-20 17:33:29.656,-1000.0,-1000.0,994.62890625,924.8046875,0.0
2024-06-20 17:33:29.660,-324.21875,-454.58984375,668.9453125,815.4296875,0.0
2024-06-20 17:33:29.664,-867.1875,-928.7109375,-872.0703125,-715.8203125,0.0
2024-06-20 17:33:29.668,686.03515625,804.6875,-1000.0,-1000.0,0.0
2024-06-20 17:33:29.671,-934.5703125,-753.90625,280.2734375,152.34375,0.0
2024-06-20 17:33:29.675,-786.1328125,-984.86328125,-861.81640625,-807.12890625,0.0
2024-06-20 17:33:29.679,769.04296875,519.53125,-206.54296875,-54.6875,0.0
2024-06-20 17:33:29.683,-864.2578125,-817.3828125,-1000.0,-1000.0,0.0
2024-06-20 17:33:29.687,-177.734375,-69.82421875,-187.01171875,-235.83984375,0.0
2024-06-20 17:33:29.691,-1000.0,-1000.0,-819.82421875,-822.75390625,0.0
2024-06-20 17:33:29.695,84.47265625,-74.21875,211.9140625,236.328125,0.0
2024-06-20 17:33:29.699,-763.18359375,-778.80859375,-1000.0,-1000.0,0.0
2024-06-20 17:33:29.703,192.3828125,208.0078125,-328.61328125,-372.0703125,0.0
2024-06-20 17:33:29.707,-1000.0,-1000.0,-838.8671875,-853.02734375,0.0
2024-06-20 17:33:29.711,-274.90234375,-275.87890625,358.88671875,458.49609375,0.0
2024-06-20 17:33:29.714,-807.12890625,-815.4296875,-1000.0,-1000.0,0.0
2024-06-20 17:33:29.718,365.234375,463.37890625,-754.8828125,-853.02734375,0.0
2024-06-20 17:33:29.722,-1000.0,-1000.0,836.42578125,707.03125,0.0
2024-06-20 17:33:29.726,-437.01171875,-546.38671875,826.171875,980.46875,0.0
2024-06-20 17:33:29.730,-935.05859375,995.1171875,-701.171875,-511.23046875,0.0
2024-06-20 17:33:29.734,836.42578125,946.2890625,-1000.0,-1000.0,0.0
2024-06-20 17:33:29.738,-733.3984375,-565.91796875,121.58203125,30.76171875,0.0
2024-06-20 17:33:29.742,-939.453125,-1000.0,-812.98828125,-796.38671875,0.0
2024-06-20 17:33:29.746,592.7734375,445.3125,-35.64453125,73.73046875,0.0
2024-06-20 17:33:29.750,-820.3125,-796.38671875,-1000.0,-1000.0,0.0
2024-06-20 17:33:29.754,-53.7109375,46.38671875,-233.3984375,-248.53515625,0.0
2024-06-20 17:33:29.757,-1000.0,-1000.0,-822.75390625,-819.82421875,0.0
2024-06-20 17:33:29.761,-45.41015625,-202.1484375,236.81640625,238.76953125,0.0
2024-06-20 17:33:29.765,-771.97265625,-796.875,-1000.0,-1000.0,0.0
2024-06-20 17:33:29.769,203.61328125,221.6796875,-427.24609375,-495.60546875,0.0
2024-06-20 17:33:29.773,-1000.0,-1000.0,-880.37109375,-913.57421875,0.0
2024-06-20 17:33:29.777,-278.80859375,-276.3671875,458.984375,568.84765625,0.0
2024-06-20 17:33:29.781,-809.5703125,-819.3359375,-1000.0,-996.09375,0.0
2024-06-20 17:33:29.785,457.51953125,542.48046875,-897.94921875,-989.2578125,0.0
2024-06-20 17:33:29.789,-1000.0,-1000.0,625.0,484.375,0.0
2024-06-20 17:33:29.793,-457.03125,-543.45703125,981.93359375,-883.30078125,0.0
2024-06-20 17:33:29.796,980.95703125,941.89453125,-484.375,-290.52734375,0.0
2024-06-20 17:33:29.800,959.9609375,980.95703125,-1000.0,-1000.0,0.0
2024-06-20 17:33:29.804,-528.3203125,-457.03125,-30.76171875,-94.7265625,0.0
2024-06-20 17:33:29.808,-1000.0,-1000.0,-812.01171875,-800.29296875,0.0
2024-06-20 17:33:29.812,399.90234375,183.10546875,73.73046875,189.453125,0.0
2024-06-20 17:33:29.816,-786.1328125,-771.97265625,-1000.0,-1000.0,0.0
2024-06-20 17:33:29.820,71.2890625,170.41015625,-248.046875,-262.6953125,0.0
2024-06-20 17:33:29.824,-1000.0,-1000.0,-820.80078125,-814.453125,0.0
2024-06-20 17:33:29.828,-174.31640625,-263.671875,247.55859375,267.08984375,0.0
2024-06-20 17:33:29.832,-787.109375,-799.8046875,-1000.0,-1000.0,0.0
2024-06-20 17:33:29.836,216.30859375,277.34375,-519.53125,-586.9140625,0.0
2024-06-20 17:33:29.839,-1000.0,-1000.0,-933.59375,-982.421875,0.0
2024-06-20 17:33:29.843,-275.87890625,-295.41015625,581.0546875,704.58984375,0.0
2024-06-20 17:33:29.847,-829.58984375,-846.19140625,-959.9609375,-850.09765625,0.0
2024-06-20 17:33:29.851,575.1953125,650.390625,-1000.0,-1000.0,0.0
2024-06-20 17:33:29.855,-1000.0,-941.89453125,428.7109375,281.73828125,0.0
2024-06-20 17:33:29.859,-649.4140625,-837.890625,-922.8515625,-828.125,0.0
2024-06-20 17:33:29.863,903.3203125,700.68359375,-339.35546875,-157.71484375,0.0
2024-06-20 17:33:29.867,-919.43359375,-858.3984375,-1000.0,-1000.0,0.0
2024-06-20 17:33:29.871,-294.921875,-179.19921875,-128.41796875,-208.49609375,0.0
2024-06-20 17:33:29.875,-1000.0,-1000.0,-815.91796875,-820.3125,0.0
2024-06-20 17:33:29.879,193.84765625,30.76171875,161.62109375,229.98046875,0.0
2024-06-20 17:33:29.882,-763.671875,-770.01953125,-1000.0,-1000.0,0.0
2024-06-20 17:33:29.886,185.05859375,198.73046875,-275.390625,-294.921875,0.0
2024-06-20 17:33:29.890,-1000.0,-1000.0,-823.2421875,-823.2421875,0.0
2024-06-20 17:33:29.894,-271.484375,-275.390625,294.43359375,367.67578125,0.0
2024-06-20 17:33:29.898,-802.734375,-809.08203125,-1000.0,-1000.0,0.0
2024-06-20 17:33:29.902,279.296875,391.11328125,-645.99609375,-729.00390625,0.0
2024-06-20 17:33:29.906,-1000.0,-1000.0,967.28515625,878.90625,0.0
2024-06-20 17:33:29.910,-342.28515625,-473.6328125,683.10546875,843.26171875,0.0
2024-06-20 17:33:29.914,-875.48828125,-945.80078125,-861.81640625,-691.89453125,0.0
2024-06-20 17:33:29.918,709.9609375,833.49609375,-1000.0,-1000.0,0.0
2024-06-20 17:33:29.921,-907.71484375,-725.5859375,254.8828125,139.6484375,0.0
2024-06-20 17:33:29.925,-802.734375,-986.328125,-849.12109375,-803.7109375,0.0
2024-06-20 17:33:29.929,753.90625,514.16015625,-170.41015625,-34.1796875,0.0
2024-06-20 17:33:29.933,-859.86328125,-809.5703125,-1000.0,-1000.0,0.0
2024-06-20 17:33:29.937,-159.66796875,-9.27734375,-191.89453125,-237.79296875,0.0
2024-06-20 17:33:29.941,-1000.0,-1000.0,-819.3359375,-822.75390625,0.0
2024-06-20 17:33:29.945,53.7109375,-113.28125,213.37890625,237.3046875,0.0
2024-06-20 17:33:29.949,-765.625,-780.76171875,-1000.0,-1000.0,0.0
2024-06-20 17:33:29.953,195.3125,210.9375,-341.30859375,-395.99609375,0.0
2024-06-20 17:33:29.957,-1000.0,-1000.0,-844.23828125,-863.76953125,0.0
2024-06-20 17:33:29.961,-275.390625,-274.90234375,383.30078125,487.3046875,0.0
2024-06-20 17:33:29.964,-808.59375,-816.40625,-1000.0,-1000.0,0.0
2024-06-20 17:33:29.968,378.41796875,459.47265625,-778.80859375,-875.9765625,0.0
2024-06-20 17:33:29.972,-1000.0,-1000.0,814.453125,681.640625,0.0
2024-06-20 17:33:29.976,-453.61328125,-592.28515625,834.9609375,990.72265625,0.0
2024-06-20 17:33:29.980,-944.82421875,966.30859375,-690.4296875,-498.046875,0.0
2024-06-20 17:33:29.984,852.05078125,954.58984375,-1000.0,-1000.0,0.0
2024-06-20 17:33:29.988,-711.42578125,-535.64453125,99.12109375,20.5078125,0.0
2024-06-20 17:33:29.992,-955.56640625,-1000.0,-813.96484375,-795.8984375,0.0
2024-06-20 17:33:29.996,572.75390625,322.75390625,-25.390625,90.33203125,0.0
2024-06-20 17:33:30.000,-816.40625,-781.73828125,-1000.0,-1000.0,0.0
2024-06-20 17:33:30.004,-41.50390625,83.984375,-234.86328125,-250.48828125,0.0
2024-06-20 17:33:30.007,-1000.0,-1000.0,-822.75390625,-819.3359375,0.0
2024-06-20 17:33:30.011,-65.4296875,-193.359375,237.3046875,239.2578125,0.0
2024-06-20 17:33:30.015,-774.4140625,-791.015625,-1000.0,-1000.0,0.0
2024-06-20 17:33:30.019,206.0546875,219.23828125,-437.5,-511.71875,0.0
2024-06-20 17:33:30.023,-1000.0,-1000.0,-886.23046875,-923.828125,0.0
2024-06-20 17:33:30.027,-276.85546875,-274.90234375,489.2578125,594.7265625,0.0
2024-06-20 17:33:30.031,-817.87109375,-825.1953125,-1000.0,-978.02734375,0.0
2024-06-20 17:33:30.035,483.88671875,538.0859375,-929.6875,-1000.0,0.0
2024-06-20 17:33:30.039,-1000.0,-1000.0,592.7734375,465.33203125,0.0
2024-06-20 17:33:30.043,-558.10546875,-678.22265625,989.74609375,-880.859375,0.0
2024-06-20 17:33:30.046,983.3984375,904.296875,-483.88671875,-287.109375,0.0
2024-06-20 17:33:30.050,968.75,-1000.0,-1000.0,-1000.0,0.0
2024-06-20 17:33:30.054,-513.18359375,-445.3125,-39.55078125,-108.3984375,0.0
2024-06-20 17:33:30.058,-1000.0,-1000.0,-803.22265625,-794.921875,0.0
2024-06-20 17:33:30.062,398.4375,198.73046875,78.61328125,184.08203125,0.0
2024-06-20 17:33:30.066,-838.8671875,-823.2421875,-1000.0,-1000.0,0.0
2024-06-20 17:33:30.070,-15.625,74.70703125,-163.57421875,-177.734375,0.0
2024-06-20 17:33:30.074,-1000.0,-1000.0,-830.56640625,-824.70703125,0.0
2024-06-20 17:33:30.078,-158.69140625,-195.3125,264.16015625,294.921875,0.0
2024-06-20 17:33:30.082,-785.15625,-790.52734375,-1000.0,-1000.0,0.0
2024-06-20 17:33:30.086,213.8671875,226.5625,-543.9453125,-614.2578125,0.0
2024-06-20 17:33:30.089,-1000.0,-1000.0,-944.82421875,-995.1171875,0.0
2024-06-20 17:33:30.093,-275.87890625,-358.88671875,586.9140625,711.9140625,0.0
2024-06-20 17:33:30.097,-831.54296875,-886.23046875,-962.890625,-849.609375,0.0
2024-06-20 17:33:30.101,586.42578125,711.42578125,-1000.0,-1000.0,0.0
2024-06-20 17:33:30.105,-1000.0,-909.66796875,430.17578125,280.76171875,0.0
2024-06-20 17:33:30.109,-654.78515625,-810.546875,-899.90234375,-822.75390625,0.0
2024-06-20 17:33:30.113,897.4609375,725.09765625,-298.33984375,-139.16015625,0.0
2024-06-20 17:33:30.117,-908.69140625,-843.75,-1000.0,-1000.0,0.0
2024-06-20 17:33:30.121,-267.08984375,-79.1015625,-113.76953125,-201.66015625,0.0
2024-06-20 17:33:30.125,-1000.0,-1000.0,-810.546875,-817.3828125,0.0
2024-06-20 17:33:30.129,162.109375,10.7421875,169.43359375,229.98046875,0.0
2024-06-20 17:33:30.132,-762.6953125,-765.13671875,-1000.0,-1000.0,0.0
2024-06-20 17:33:30.136,187.01171875,198.2421875,-286.62109375,-312.01171875,0.0
2024-06-20 17:33:30.140,-1000.0,-1000.0,-826.171875,-829.1015625,0.0
2024-06-20 17:33:30.144,-270.99609375,-273.92578125,305.17578125,387.6953125,0.0
2024-06-20 17:33:30.148,-803.22265625,-809.08203125,-1000.0,-1000.0,0.0
2024-06-20 17:33:30.152,280.2734375,363.76953125,-663.57421875,-745.60546875,0.0
2024-06-20 17:33:30.156,-1000.0,-1000.0,950.1953125,862.3046875,0.0
2024-06-20 17:33:30.160,-352.5390625,-485.3515625,702.1484375,854.4921875,0.0
2024-06-20 17:33:30.164,-882.8125,-968.75,-846.6796875,-679.6875,0.0
2024-06-20 17:33:30.168,725.5859375,872.55859375,-1000.0,-1000.0,0.0
2024-06-20 17:33:30.171,-884.27734375,-639.6484375,258.30078125,138.671875,0.0
2024-06-20 17:33:30.175,-834.47265625,-1000.0,-851.5625,-804.19921875,0.0
2024-06-20 17:33:30.179,719.23828125,391.6015625,-179.19921875,-38.57421875,0.0
2024-06-20 17:33:30.183,-852.05078125,-797.36328125,-1000.0,-1000.0,0.0
2024-06-20 17:33:30.187,-149.4140625,-22.4609375,-202.1484375,-237.3046875,0.0
2024-06-20 17:33:30.191,-1000.0,-1000.0,-822.265625,-823.2421875,0.0
2024-06-20 17:33:30.195,39.55078125,-104.98046875,219.23828125,237.3046875,0.0
2024-06-20 17:33:30.199,-767.08984375,-780.2734375,-1000.0,-1000.0,0.0
2024-06-20 17:33:30.203,196.77734375,210.44921875,-347.16796875,-402.83203125,0.0
2024-06-20 17:33:30.207,-1000.0,-1000.0,-846.19140625,-866.69921875,0.0
2024-06-20 17:33:30.211,-275.87890625,-275.390625,396.97265625,495.60546875,0.0
2024-06-20 17:33:30.214,-809.5703125,-817.3828125,-1000.0,-1000.0,0.0
2024-06-20 17:33:30.218,394.04296875,467.7734375,-800.29296875,-888.671875,0.0
2024-06-20 17:33:30.222,-1000.0,-1000.0,789.0625,664.0625,0.0
2024-06-20 17:33:30.226,-464.84375,-604.00390625,847.65625,-999.0234375,0.0
2024-06-20 17:33:30.230,-950.68359375,958.49609375,-674.8046875,-482.91015625,0.0
2024-06-20 17:33:30.234,863.76953125,961.9140625,-1000.0,-1000.0,0.0
2024-06-20 17:33:30.238,-687.98828125,-516.11328125,77.63671875,4.39453125,0.0
2024-06-20 17:33:30.242,-982.421875,-1000.0,-814.453125,-797.36328125,0.0
2024-06-20 17:33:30.246,533.69140625,276.85546875,-18.5546875,98.6328125,0.0
2024-06-20 17:33:30.250,-806.640625,-763.18359375,-1000.0,-1000.0,0.0
2024-06-20 17:33:30.254,-29.78515625,87.890625,-238.76953125,-251.46484375,0.0
2024-06-20 17:33:30.257,-1000.0,-1000.0,-823.73046875,-819.3359375,0.0
2024-06-20 17:33:30.261,-29.78515625,-3.41796875,238.28125,239.2578125,0.0
2024-06-20 17:33:30.265,-767.08984375,-753.41796875,-1000.0,-1000.0,0.0
2024-06-20 17:33:30.269,201.171875,195.80078125,-448.2421875,-522.4609375,0.0
2024-06-20 17:33:30.273,-1000.0,-1000.0,-889.6484375,-928.7109375,0.0
2024-06-20 17:33:30.277,-277.83203125,-294.921875,477.05078125,591.30859375,0.0
2024-06-20 17:33:30.281,-819.3359375,-833.984375,-1000.0,-979.4921875,0.0
2024-06-20 17:33:30.285,500.48828125,568.84765625,-940.91796875,-1000.0,0.0
2024-06-20 17:33:30.289,-1000.0,-1000.0,562.5,447.265625,0.0
2024-06-20 17:33:30.293,-566.89453125,-697.265625,-989.2578125,-869.140625,0.0
2024-06-20 17:33:30.296,975.5859375,859.86328125,-456.54296875,-264.16015625,0.0
2024-06-20 17:33:30.300,987.3046875,-923.33984375,-1000.0,-1000.0,0.0
2024-06-20 17:33:30.304,-479.00390625,-330.078125,-40.0390625,-109.375,0.0
2024-06-20 17:33:30.308,-1000.0,-1000.0,-806.15234375,-800.78125,0.0
2024-06-20 17:33:30.312,347.65625,217.28515625,122.0703125,210.44921875,0.0
2024-06-20 17:33:30.316,-782.2265625,-769.04296875,-1000.0,-1000.0,0.0
2024-06-20 17:33:30.320,79.1015625,132.8125,-254.39453125,-266.6015625,0.0
2024-06-20 17:33:30.324,-1000.0,-1000.0,-817.87109375,-813.4765625,0.0
2024-06-20 17:33:30.328,-207.03125,-263.18359375,258.30078125,289.55078125,0.0
2024-06-20 17:33:30.332,-795.41015625,-806.640625,-1000.0,-1000.0,0.0
2024-06-20 17:33:30.336,220.703125,274.90234375,-551.7578125,-619.62890625,0.0
2024-06-20 17:33:30.339,-1000.0,-1000.0,-952.63671875,995.1171875,0.0
2024-06-20 17:33:30.343,-274.90234375,-347.16796875,607.421875,732.421875,0.0
2024-06-20 17:33:30.347,-832.51953125,-871.58203125,-936.5234375,-822.75390625,0.0
2024-06-20 17:33:30.351,594.7265625,687.98828125,-1000.0,-1000.0,0.0
2024-06-20 17:33:30.355,-1000.0,-910.64453125,379.39453125,254.8828125,0.0
2024-06-20 17:33:30.359,-665.0390625,-861.81640625,-894.53125,-818.84765625,0.0
2024-06-20 17:33:30.363,889.16015625,670.41015625,-284.66796875,-122.55859375,0.0
2024-06-20 17:33:30.367,-899.4140625,-839.35546875,-1000.0,-1000.0,0.0
2024-06-20 17:33:30.371,-265.625,-167.48046875,-148.4375,-220.703125,0.0
2024-06-20 17:33:30.375,-1000.0,-1000.0,-815.91796875,-821.2890625,0.0
2024-06-20 17:33:30.379,200.1953125,143.06640625,187.01171875,232.421875,0.0
2024-06-20 17:33:30.382,-762.20703125,-758.7890625,-1000.0,-1000.0,0.0
2024-06-20 17:33:30.386,185.05859375,188.4765625,-287.109375,-313.96484375,0.0
2024-06-20 17:33:30.390,-1000.0,-1000.0,-824.70703125,-829.58984375,0.0
2024-06-20 17:33:30.394,-272.4609375,-277.83203125,306.640625,388.671875,0.0
2024-06-20 17:33:30.398,-803.7109375,-813.96484375,-1000.0,-1000.0,0.0
2024-06-20 17:33:30.402,301.7578125,450.68359375,-651.3671875,-739.74609375,0.0
2024-06-20 17:33:30.406,-1000.0,-1000.0,955.078125,862.79296875,0.0
2024-06-20 17:33:30.410,-365.72265625,-530.2734375,723.6328125,867.67578125,0.0
2024-06-20 17:33:30.414,-888.18359375,-967.7734375,-811.03515625,-657.71484375,0.0
2024-06-20 17:33:30.418,740.72265625,853.515625,-1000.0,-1000.0,0.0
2024-06-20 17:33:30.421,-866.69921875,-693.359375,212.40234375,119.140625,0.0
2024-06-20 17:33:30.425,-845.703125,-1000.0,-845.703125,-802.24609375,0.0
2024-06-20 17:33:30.429,708.984375,456.0546875,-156.25,-15.13671875,0.0
2024-06-20 17:33:30.433,-850.5859375,-810.05859375,-1000.0,-1000.0,0.0
2024-06-20 17:33:30.437,-142.578125,-48.33984375,-210.9375,-239.74609375,0.0
2024-06-20 17:33:30.441,-1000.0,-1000.0,-823.73046875,-822.75390625,0.0
2024-06-20 17:33:30.445,19.04296875,-141.11328125,221.6796875,238.28125,0.0
2024-06-20 17:33:30.449,-769.53125,-791.50390625,-1000.0,-1000.0,0.0
2024-06-20 17:33:30.453,198.73046875,216.30859375,-358.88671875,-427.734375,0.0
2024-06-20 17:33:30.457,-1000.0,-1000.0,-850.5859375,-876.953125,0.0
2024-06-20 17:33:30.461,-275.87890625,-274.90234375,394.04296875,500.48828125,0.0
2024-06-20 17:33:30.464,-810.05859375,-819.3359375,-1000.0,-1000.0,0.0
2024-06-20 17:33:30.468,407.71484375,490.234375,-806.15234375,-894.04296875,0.0
2024-06-20 17:33:30.472,-1000.0,-1000.0,774.90234375,652.83203125,0.0
2024-06-20 17:33:30.476,-472.65625,-613.76953125,865.234375,-990.234375,0.0
2024-06-20 17:33:30.480,-955.56640625,951.171875,-653.80859375,-467.7734375,0.0
2024-06-20 17:33:30.484,875.9765625,982.421875,-1000.0,-1000.0,0.0
2024-06-20 17:33:30.488,-675.78125,-536.1328125,56.640625,-21.484375,0.0
2024-06-20 17:33:30.492,-979.00390625,-1000.0,-809.08203125,-796.38671875,0.0
2024-06-20 17:33:30.496,541.015625,445.3125,31.25,149.90234375,0.0
2024-06-20 17:33:30.500,-810.546875,-793.9453125,-1000.0,-1000.0,0.0
2024-06-20 17:33:30.504,-9.27734375,82.03125,-244.62890625,-257.8125,0.0
2024-06-20 17:33:30.507,-1000.0,-1000.0,-821.2890625,-816.40625,0.0
2024-06-20 17:33:30.511,-108.88671875,-229.00390625,237.79296875,238.28125,0.0
2024-06-20 17:33:30.515,-780.2734375,-800.78125,-1000.0,-1000.0,0.0
2024-06-20 17:33:30.519,210.44921875,224.609375,-467.28515625,-535.64453125,0.0
2024-06-20 17:33:30.523,-1000.0,-1000.0,-899.4140625,-936.03515625,0.0
2024-06-20 17:33:30.527,-276.85546875,-282.2265625,497.55859375,599.609375,0.0
2024-06-20 17:33:30.531,-820.3125,-830.56640625,-1000.0,-971.6796875,0.0
2024-06-20 17:33:30.535,509.27734375,573.2421875,-953.61328125,-1000.0,0.0
2024-06-20 17:33:30.539,-1000.0,-1000.0,536.1328125,414.0625,0.0
2024-06-20 17:33:30.543,-570.3125,-622.55859375,-962.40234375,-853.02734375,0.0
2024-06-20 17:33:30.546,973.14453125,939.94140625,-402.34375,-215.33203125,0.0
2024-06-20 17:33:30.550,993.1640625,-974.609375,-1000.0,-1000.0,0.0
2024-06-20 17:33:30.554,-458.0078125,-363.76953125,-78.61328125,-154.78515625,0.0
2024-06-20 17:33:30.558,-1000.0,-1000.0,-812.5,-809.08203125,0.0
2024-06-20 17:33:30.562,304.19921875,138.18359375,117.1875,215.33203125,0.0
2024-06-20 17:33:30.566,-777.34375,-768.5546875,-1000.0,-1000.0,0.0
2024-06-20 17:33:30.570,117.67578125,180.17578125,-252.9296875,-265.625,0.0
2024-06-20 17:33:30.574,-1000.0,-1000.0,-818.359375,-813.4765625,0.0
2024-06-20 17:33:30.578,-224.609375,-273.4375,262.6953125,294.921875,0.0
2024-06-20 17:33:30.582,-795.8984375,-803.7109375,-1000.0,-1000.0,0.0
2024-06-20 17:33:30.586,221.6796875,360.3515625,-541.9921875,-615.234375,0.0
2024-06-20 17:33:30.589,-1000.0,-1000.0,-950.68359375,993.1640625,0.0
2024-06-20 17:33:30.593,-274.4140625,-359.86328125,626.953125,750.48828125,0.0
2024-06-20 17:33:30.597,-833.984375,-870.60546875,-913.57421875,-791.015625,0.0
2024-06-20 17:33:30.601,603.02734375,708.984375,-1000.0,-1000.0,0.0
2024-06-20 17:33:30.605,-1000.0,-877.44140625,362.79296875,217.7734375,0.0
2024-06-20 17:33:30.609,-701.66015625,-888.671875,-887.6953125,-813.96484375,0.0
2024-06-20 17:33:30.613,853.515625,645.01953125,-264.6484375,-97.65625,0.0
2024-06-20 17:33:30.617,-893.5546875,-841.30859375,-1000.0,-1000.0,0.0
2024-06-20 17:33:30.621,-243.65234375,-138.18359375,-159.1796875,-228.02734375,0.0
2024-06-20 17:33:30.625,-1000.0,-1000.0,-816.89453125,-821.77734375,0.0
2024-06-20 17:33:30.629,134.27734375,15.13671875,189.453125,233.3984375,0.0
2024-06-20 17:33:30.632,-763.671875,-769.04296875,-1000.0,-1000.0,0.0
2024-06-20 17:33:30.636,189.453125,199.21875,-291.015625,-321.2890625,0.0
2024-06-20 17:33:30.640,-1000.0,-1000.0,-826.171875,-832.51953125,0.0
2024-06-20 17:33:30.644,-272.4609375,-275.390625,314.94140625,399.4140625,0.0
2024-06-20 17:33:30.648,-803.7109375,-810.05859375,-1000.0,-1000.0,0.0
2024-06-20 17:33:30.652,307.6171875,393.06640625,-697.265625,-765.13671875,0.0
2024-06-20 17:33:30.656,-1000.0,-1000.0,909.66796875,833.0078125,0.0
2024-06-20 17:33:30.660,-369.62890625,-503.41796875,745.1171875,885.25390625,0.0
2024-06-20 17:33:30.664,-889.6484375,-958.49609375,-795.41015625,-633.7890625,0.0
2024-06-20 17:33:30.668,744.140625,831.0546875,-1000.0,-1000.0,0.0
2024-06-20 17:33:30.671,-852.5390625,-694.82421875,182.12890625,82.51953125,0.0
2024-06-20 17:33:30.675,-876.46484375,-1000.0,-838.8671875,-802.24609375,0.0
2024-06-20 17:33:30.679,663.57421875,360.3515625,-132.8125,9.765625,0.0
2024-06-20 17:33:30.683,-839.84375,-793.9453125,-1000.0,-1000.0,0.0
2024-06-20 17:33:30.687,-110.83984375,41.9921875,-209.9609375,-242.1875,0.0
2024-06-20 17:33:30.691,-1000.0,-1000.0,-822.75390625,-821.77734375,0.0
2024-06-20 17:33:30.695,1.46484375,-203.125,222.16796875,238.28125,0.0
2024-06-20 17:33:30.699,-769.04296875,-797.8515625,-1000.0,-1000.0,0.0
2024-06-20 17:33:30.703,199.70703125,222.16796875,-375.9765625,-437.01171875,0.0
2024-06-20 17:33:30.707,-1000.0,-1000.0,-857.421875,-881.34765625,0.0
2024-06-20 17:33:30.711,-276.3671875,-274.4140625,397.4609375,506.34765625,0.0
2024-06-20 17:33:30.714,-811.03515625,-821.77734375,-1000.0,-1000.0,0.0
2024-06-20 17:33:30.718,417.48046875,512.20703125,-813.4765625,-896.484375,0.0
2024-06-20 17:33:30.722,-1000.0,-1000.0,759.27734375,642.578125,0.0
2024-06-20 17:33:30.726,-489.2578125,-626.46484375,883.30078125,-974.609375,0.0
2024-06-20 17:33:30.730,-963.8671875,939.94140625,-628.90625,-437.5,0.0
2024-06-20 17:33:30.734,882.8125,-1000.0,-1000.0,-1000.0,0.0
2024-06-20 17:33:30.738,-654.296875,-454.1015625,48.33984375,-36.62109375,0.0
2024-06-20 17:33:30.742,-1000.0,-1000.0,-811.5234375,-798.828125,0.0
2024-06-20 17:33:30.746,482.421875,269.04296875,19.04296875,143.5546875,0.0
2024-06-20 17:33:30.750,-802.734375,-776.3671875,-1000.0,-1000.0,0.0
2024-06-20 17:33:30.754,6.34765625,103.02734375,-243.1640625,-256.34765625,0.0
2024-06-20 17:33:30.757,-1000.0,-1000.0,-822.265625,-816.89453125,0.0
2024-06-20 17:33:30.761,-116.69921875,-234.86328125,238.28125,238.28125,0.0
2024-06-20 17:33:30.765,-780.2734375,-799.8046875,-1000.0,-1000.0,0.0
2024-06-20 17:33:30.769,210.9375,224.12109375,-468.26171875,-531.25,0.0
2024-06-20 17:33:30.773,-1000.0,-1000.0,-907.71484375,-947.265625,0.0
2024-06-20 17:33:30.777,-276.85546875,-273.92578125,556.640625,661.62109375,0.0
2024-06-20 17:33:30.781,-821.2890625,-828.125,-983.88671875,-903.80859375,0.0
2024-06-20 17:33:30.785,516.11328125,560.546875,-985.83984375,-1000.0,0.0
2024-06-20 17:33:30.789,-1000.0,-1000.0,510.7421875,383.30078125,0.0
2024-06-20 17:33:30.793,-598.6328125,-725.09765625,-958.984375,-848.14453125,0.0
2024-06-20 17:33:30.796,955.078125,839.84375,-400.87890625,-205.56640625,0.0
2024-06-20 17:33:30.800,-999.0234375,-937.5,-1000.0,-1000.0,0.0
2024-06-20 17:33:30.804,-443.359375,-330.078125,-80.56640625,-167.48046875,0.0
2024-06-20 17:33:30.808,-1000.0,-1000.0,-813.4765625,-811.5234375,0.0
2024-06-20 17:33:30.812,266.6015625,87.40234375,115.234375,216.796875,0.0
2024-06-20 17:33:30.816,-773.92578125,-771.484375,-1000.0,-1000.0,0.0
2024-06-20 17:33:30.820,131.34765625,194.3359375,-252.9296875,-265.625,0.0
2024-06-20 17:33:30.824,-1000.0,-1000.0,-819.3359375,-813.96484375,0.0
2024-06-20 17:33:30.828,-235.83984375,-271.484375,264.6484375,296.38671875,0.0
2024-06-20 17:33:30.832,-797.36328125,-805.17578125,-1000.0,-1000.0,0.0
2024-06-20 17:33:30.836,222.65625,303.7109375,-575.1953125,-628.90625,0.0
2024-06-20 17:33:30.839,-1000.0,-1000.0,-973.14453125,982.421875,0.0
2024-06-20 17:33:30.843,-274.4140625,-407.71484375,631.8359375,760.7421875,0.0
2024-06-20 17:33:30.847,-834.47265625,-912.59765625,-915.0390625,-782.71484375,0.0
2024-06-20 17:33:30.851,609.86328125,770.01953125,-1000.0,-1000.0,0.0
2024-06-20 17:33:30.855,-1000.0,-820.3125,350.09765625,216.30859375,0.0
2024-06-20 17:33:30.859,-720.703125,-903.3203125,-881.34765625,-813.96484375,0.0
2024-06-20 17:33:30.863,830.56640625,628.41796875,-252.44140625,-94.23828125,0.0
2024-06-20 17:33:30.867,-884.765625,-832.03125,-1000.0,-1000.0,0.0
2024-06-20 17:33:30.871,-218.26171875,-83.984375,-158.69140625,-232.91015625,0.0
2024-06-20 17:33:30.875,-1000.0,-1000.0,-817.3828125,-823.73046875,0.0
2024-06-20 17:33:30.879,115.234375,-44.921875,187.98828125,234.86328125,0.0
2024-06-20 17:33:30.882,-763.18359375,-774.4140625,-1000.0,-1000.0,0.0
2024-06-20 17:33:30.886,190.4296875,205.078125,-304.19921875,-339.35546875,0.0
2024-06-20 17:33:30.890,-1000.0,-1000.0,-831.0546875,-838.8671875,0.0
2024-06-20 17:33:30.894,-273.4375,-275.390625,325.1953125,408.69140625,0.0
2024-06-20 17:33:30.898,-804.19921875,-811.5234375,-1000.0,-1000.0,0.0
2024-06-20 17:33:30.902,319.3359375,422.8515625,-698.2421875,-772.94921875,0.0
2024-06-20 17:33:30.906,-1000.0,-1000.0,904.296875,814.94140625,0.0
2024-06-20 17:33:30.910,-382.8125,-499.0234375,762.6953125,912.59765625,0.0
2024-06-20 17:33:30.914,-902.34375,-994.140625,-783.203125,-605.46875,0.0
2024-06-20 17:33:30.918,777.34375,953.125,-1000.0,-1000.0,0.0
2024-06-20 17:33:30.921,-809.08203125,-506.34765625,217.7734375,116.2109375,0.0
2024-06-20 17:33:30.925,-895.5078125,-1000.0,-833.49609375,-796.38671875,0.0
2024-06-20 17:33:30.929,644.04296875,333.49609375,-121.09375,15.625,0.0
2024-06-20 17:33:30.933,-833.49609375,-784.66796875,-1000.0,-1000.0,0.0
2024-06-20 17:33:30.937,-95.703125,26.85546875,-216.796875,-243.65234375,0.0
2024-06-20 17:33:30.941,-1000.0,-1000.0,-823.2421875,-821.2890625,0.0
2024-06-20 17:33:30.945,-3.41796875,-139.6484375,229.00390625,238.28125,0.0
2024-06-20 17:33:30.949,-768.5546875,-783.69140625,-1000.0,-1000.0,0.0
2024-06-20 17:33:30.953,199.70703125,213.8671875,-379.8828125,-442.87109375,0.0
2024-06-20 17:33:30.957,-1000.0,-1000.0,-859.375,-885.7421875,0.0
2024-06-20 17:33:30.961,-276.85546875,-275.87890625,426.7578125,531.73828125,0.0
2024-06-20 17:33:30.964,-812.5,-826.171875,-1000.0,-1000.0,0.0
2024-06-20 17:33:30.968,431.15234375,545.41015625,-827.1484375,-915.0390625,0.0
2024-06-20 17:33:30.972,-1000.0,-1000.0,754.8828125,625.0,0.0
2024-06-20 17:33:30.976,-513.18359375,-705.56640625,873.53515625,-973.6328125,0.0
2024-06-20 17:33:30.980,-983.88671875,865.72265625,-638.671875,-434.5703125,0.0
2024-06-20 17:33:30.984,913.0859375,-965.33203125,-1000.0,-1000.0,0.0
2024-06-20 17:33:30.988,-608.88671875,-416.9921875,21.97265625,-58.10546875,0.0
2024-06-20 17:33:30.992,-1000.0,-1000.0,-815.4296875,-801.7578125,0.0
2024-06-20 17:33:30.996,455.56640625,244.140625,19.53125,152.34375,0.0
2024-06-20 17:33:31.000,-797.36328125,-770.99609375,-1000.0,-1000.0,0.0
2024-06-20 17:33:31.004,21.484375,125.9765625,-242.67578125,-256.8359375,0.0
2024-06-20 17:33:31.007,-1000.0,-1000.0,-822.265625,-816.40625,0.0
2024-06-20 17:33:31.011,-125.9765625,-232.91015625,241.69921875,241.69921875,0.0
2024-06-20 17:33:31.015,-780.76171875,-798.33984375,-1000.0,-1000.0,0.0
2024-06-20 17:33:31.019,211.42578125,229.00390625,-472.65625,-537.109375,0.0
2024-06-20 17:33:31.023,-1000.0,-1000.0,-905.2734375,-944.3359375,0.0
2024-06-20 17:33:31.027,-276.3671875,-306.640625,530.2734375,639.6484375,0.0
2024-06-20 17:33:31.031,-822.75390625,-840.8203125,-1000.0,-919.43359375,0.0
2024-06-20 17:33:31.035,525.390625,583.49609375,-989.74609375,-1000.0,0.0
2024-06-20 17:33:31.039,-1000.0,-1000.0,498.53515625,359.375,0.0
2024-06-20 17:33:31.043,-619.140625,-798.828125,-966.30859375,-853.02734375,0.0
2024-06-20 17:33:31.046,946.77734375,796.38671875,-412.59765625,-218.26171875,0.0
2024-06-20 17:33:31.050,999.51171875,-989.2578125,-1000.0,-1000.0,0.0
2024-06-20 17:33:31.054,-454.58984375,-472.16796875,-110.83984375,-188.96484375,0.0
2024-06-20 17:33:31.058,-1000.0,-1000.0,-815.91796875,-817.3828125,0.0
2024-06-20 17:33:31.062,264.6484375,181.15234375,150.390625,226.5625,0.0
2024-06-20 17:33:31.066,-774.4140625,-770.99609375,-1000.0,-1000.0,0.0
2024-06-20 17:33:31.070,146.484375,181.640625,-259.27734375,-266.6015625,0.0
2024-06-20 17:33:31.074,-1000.0,-1000.0,-818.359375,-812.98828125,0.0
2024-06-20 17:33:31.078,-250.0,-272.4609375,265.625,308.10546875,0.0
2024-06-20 17:33:31.082,-799.8046875,-804.6875,-1000.0,-1000.0,0.0
2024-06-20 17:33:31.086,224.609375,320.80078125,-583.49609375,-634.27734375,0.0
2024-06-20 17:33:31.089,-1000.0,-1000.0,-985.83984375,973.14453125,0.0
2024-06-20 17:33:31.093,-280.76171875,-384.27734375,661.62109375,786.62109375,0.0
2024-06-20 17:33:31.097,-842.28515625,-914.0625,-887.6953125,-751.953125,0.0
2024-06-20 17:33:31.101,632.32421875,812.01171875,-1000.0,-1000.0,0.0
2024-06-20 17:33:31.105,-994.62890625,-762.6953125,343.75,209.47265625,0.0
2024-06-20 17:33:31.109,-737.3046875,-910.15625,-868.65234375,-807.6171875,0.0
2024-06-20 17:33:31.113,815.91796875,638.18359375,-220.703125,-69.3359375,0.0
2024-06-20 17:33:31.117,-880.37109375,-833.984375,-1000.0,-1000.0,0.0
2024-06-20 17:33:31.121,-207.51953125,-104.98046875,-173.33984375,-235.3515625,0.0
2024-06-20 17:33:31.125,-1000.0,-1000.0,-817.87109375,-823.2421875,0.0
2024-06-20 17:33:31.129,103.515625,-17.08984375,202.63671875,235.83984375,0.0
2024-06-20 17:33:31.132,-763.671875,-771.484375,-1000.0,-1000.0,0.0
2024-06-20 17:33:31.136,190.91796875,202.1484375,-316.40625,-358.88671875,0.0
2024-06-20 17:33:31.140,-1000.0,-1000.0,-834.47265625,-846.19140625,0.0
2024-06-20 17:33:31.144,-273.92578125,-276.85546875,332.51953125,420.41015625,0.0
2024-06-20 17:33:31.148,-805.17578125,-815.91796875,-1000.0,-1000.0,0.0
2024-06-20 17:33:31.152,331.54296875,465.8203125,-694.82421875,-771.484375,0.0
2024-06-20 17:33:31.156,-1000.0,-1000.0,914.55078125,823.73046875,0.0
2024-06-20 17:33:31.160,-407.2265625,-562.01171875,749.51171875,900.390625,0.0
2024-06-20 17:33:31.164,-912.109375,-998.53515625,-786.1328125,-609.375,0.0
2024-06-20 17:33:31.168,784.1796875,903.3203125,-1000.0,-1000.0,0.0
2024-06-20 17:33:31.171,-804.19921875,-602.5390625,162.59765625,61.03515625,0.0
2024-06-20 17:33:31.175,-903.80859375,-1000.0,-831.54296875,-799.8046875,0.0
2024-06-20 17:33:31.179,631.34765625,342.28515625,-105.46875,40.0390625,0.0
2024-06-20 17:33:31.183,-830.078125,-786.62109375,-1000.0,-1000.0,0.0
2024-06-20 17:33:31.187,-81.0546875,53.22265625,-217.7734375,-245.1171875,0.0
2024-06-20 17:33:31.191,-1000.0,-1000.0,-822.75390625,-820.3125,0.0
2024-06-20 17:33:31.195,-14.6484375,-174.31640625,229.00390625,238.28125,0.0
2024-06-20 17:33:31.199,-769.04296875,-789.55078125,-1000.0,-1000.0,0.0
2024-06-20 17:33:31.203,201.171875,217.28515625,-392.578125,-448.73046875,0.0
2024-06-20 17:33:31.207,-1000.0,-1000.0,-863.76953125,-886.71875,0.0
2024-06-20 17:33:31.211,-276.3671875,-274.90234375,413.0859375,517.08984375,0.0
2024-06-20 17:33:31.214,-812.5,-821.2890625,-1000.0,-1000.0,0.0
2024-06-20 17:33:31.218,431.15234375,510.25390625,-854.4921875,-938.96484375,0.0
2024-06-20 17:33:31.222,-1000.0,-1000.0,697.75390625,566.89453125,0.0
2024-06-20 17:33:31.226,-514.16015625,-625.0,924.8046875,-932.6171875,0.0
2024-06-20 17:33:31.230,-988.28125,923.33984375,-576.66015625,-372.55859375,0.0
2024-06-20 17:33:31.234,925.78125,-953.125,-1000.0,-1000.0,0.0
2024-06-20 17:33:31.238,-602.05078125,-439.94140625,22.94921875,-64.94140625,0.0
2024-06-20 17:33:31.242,-1000.0,-1000.0,-803.7109375,-797.8515625,0.0
2024-06-20 17:33:31.246,493.1640625,472.65625,76.171875,184.08203125,0.0
2024-06-20 17:33:31.250,-799.8046875,-793.9453125,-1000.0,-1000.0,0.0
2024-06-20 17:33:31.254,31.73828125,98.14453125,-249.51171875,-261.23046875,0.0
2024-06-20 17:33:31.257,-1000.0,-1000.0,-819.3359375,-814.453125,0.0
2024-06-20 17:33:31.261,-132.32421875,-242.67578125,237.79296875,237.79296875,0.0
2024-06-20 17:33:31.265,-780.76171875,-805.17578125,-1000.0,-1000.0,0.0
2024-06-20 17:33:31.269,211.9140625,229.00390625,-499.51171875,-558.10546875,0.0
2024-06-20 17:33:31.273,-1000.0,-1000.0,-916.015625,-952.1484375,0.0
2024-06-20 17:33:31.277,-276.3671875,-333.984375,515.13671875,623.53515625,0.0
2024-06-20 17:33:31.281,-823.2421875,-852.5390625,-1000.0,-935.05859375,0.0
2024-06-20 17:33:31.285,530.76171875,602.5390625,-992.1875,-1000.0,0.0
2024-06-20 17:33:31.289,-1000.0,-1000.0,476.07421875,327.1484375,0.0
2024-06-20 17:33:31.293,-619.140625,-751.46484375,-947.75390625,-839.35546875,0.0
2024-06-20 17:33:31.296,939.453125,833.0078125,-381.8359375,-187.98828125,0.0
2024-06-20 17:33:31.300,-981.93359375,-957.51953125,-1000.0,-1000.0,0.0
2024-06-20 17:33:31.304,-414.0625,-378.41796875,-109.86328125,-188.96484375,0.0
2024-06-20 17:33:31.308,-1000.0,-1000.0,-816.40625,-815.4296875,0.0
2024-06-20 17:33:31.312,243.1640625,112.3046875,138.671875,226.07421875,0.0
2024-06-20 17:33:31.316,-770.99609375,-770.01953125,-1000.0,-1000.0,0.0
2024-06-20 17:33:31.320,157.2265625,191.89453125,-262.20703125,-267.578125,0.0
2024-06-20 17:33:31.324,-1000.0,-1000.0,-820.3125,-813.4765625,0.0
2024-06-20 17:33:31.328,-252.44140625,-274.4140625,274.4140625,323.2421875,0.0
2024-06-20 17:33:31.332,-799.31640625,-805.17578125,-1000.0,-1000.0,0.0
2024-06-20 17:33:31.336,224.609375,354.98046875,-583.49609375,-642.08984375,0.0
2024-06-20 17:33:31.339,-1000.0,-1000.0,-981.4453125,971.6796875,0.0
2024-06-20 17:33:31.343,-280.76171875,-400.87890625,649.90234375,780.76171875,0.0
2024-06-20 17:33:31.347,-847.16796875,-913.0859375,-891.6015625,-753.41796875,0.0
2024-06-20 17:33:31.351,647.94921875,803.7109375,-1000.0,-1000.0,0.0
2024-06-20 17:33:31.355,-972.65625,-755.859375,318.84765625,185.546875,0.0
2024-06-20 17:33:31.359,-756.34765625,-956.54296875,-875.48828125,-811.5234375,0.0
2024-06-20 17:33:31.363,797.8515625,572.75390625,-237.79296875,-82.03125,0.0
2024-06-20 17:33:31.367,-874.51171875,-828.61328125,-1000.0,-1000.0,0.0
2024-06-20 17:33:31.371,-195.80078125,-110.83984375,-186.03515625,-237.79296875,0.0
2024-06-20 17:33:31.375,-1000.0,-1000.0,-806.15234375,-808.10546875,0.0
2024-06-20 17:33:31.379,137.20703125,7.8125,162.59765625,198.2421875,0.0
2024-06-20 17:33:31.382,-868.1640625,-878.90625,-1000.0,-1000.0,0.0
2024-06-20 17:33:31.386,10.7421875,22.94921875,-119.140625,-157.71484375,0.0
2024-06-20 17:33:31.390,-1000.0,-1000.0,-846.6796875,-856.4453125,0.0
2024-06-20 17:33:31.394,-271.97265625,-273.92578125,331.54296875,418.9453125,0.0
2024-06-20 17:33:31.398,-810.546875,-818.359375,-1000.0,-1000.0,0.0
2024-06-20 17:33:31.402,331.54296875,437.5,-727.05078125,-809.08203125,0.0
2024-06-20 17:33:31.406,-1000.0,-1000.0,871.09375,766.6015625,0.0
2024-06-20 17:33:31.410,-402.83203125,-503.41796875,790.52734375,938.4765625,0.0
2024-06-20 17:33:31.414,-916.015625,-982.421875,-744.62890625,-564.453125,0.0
2024-06-20 17:33:31.418,801.26953125,922.8515625,-1000.0,-1000.0,0.0
2024-06-20 17:33:31.421,-777.83203125,-562.01171875,156.73828125,53.22265625,0.0
2024-06-20 17:33:31.425,-913.57421875,-1000.0,-828.125,-798.33984375,0.0
2024-06-20 17:33:31.429,622.0703125,354.4921875,-94.7265625,47.36328125,0.0
2024-06-20 17:33:31.433,-826.66015625,-784.1796875,-1000.0,-1000.0,0.0
2024-06-20 17:33:31.437,-74.21875,90.8203125,-218.75,-246.09375,0.0
2024-06-20 17:33:31.441,-1000.0,-1000.0,-822.265625,-819.82421875,0.0
2024-06-20 17:33:31.445,-19.04296875,-180.6640625,231.4453125,238.28125,0.0
2024-06-20 17:33:31.449,-769.04296875,-787.59765625,-1000.0,-1000.0,0.0
2024-06-20 17:33:31.453,201.171875,217.28515625,-401.85546875,-454.1015625,0.0
2024-06-20 17:33:31.457,-1000.0,-1000.0,-867.1875,-888.671875,0.0
2024-06-20 17:33:31.461,-276.3671875,-287.109375,411.1328125,517.08984375,0.0
2024-06-20 17:33:31.464,-812.98828125,-825.68359375,-1000.0,-1000.0,0.0
2024-06-20 17:33:31.468,434.5703125,508.30078125,-869.140625,-953.125,0.0
2024-06-20 17:33:31.472,-1000.0,-1000.0,677.734375,541.9921875,0.0
2024-06-20 17:33:31.476,-526.85546875,-663.57421875,927.734375,-923.828125,0.0
2024-06-20 17:33:31.480,-997.0703125,900.87890625,-573.2421875,-359.375,0.0
2024-06-20 17:33:31.484,933.10546875,-981.4453125,-1000.0,-1000.0,0.0
2024-06-20 17:33:31.488,-575.1953125,-421.875,12.6953125,-75.1953125,0.0
2024-06-20 17:33:31.492,-1000.0,-1000.0,-811.03515625,-800.78125,0.0
2024-06-20 17:33:31.496,425.78125,208.984375,42.96875,172.8515625,0.0
2024-06-20 17:33:31.500,-791.50390625,-771.97265625,-1000.0,-1000.0,0.0
2024-06-20 17:33:31.504,43.45703125,144.53125,-245.1171875,-259.27734375,0.0
2024-06-20 17:33:31.507,-1000.0,-1000.0,-821.77734375,-815.4296875,0.0
2024-06-20 17:33:31.511,-142.08984375,-258.7890625,238.28125,237.79296875,0.0
2024-06-20 17:33:31.515,-781.73828125,-800.78125,-1000.0,-1000.0,0.0
2024-06-20 17:33:31.519,212.40234375,262.20703125,-492.67578125,-552.734375,0.0
2024-06-20 17:33:31.523,-1000.0,-1000.0,-922.8515625,-965.8203125,0.0
2024-06-20 17:33:31.527,-276.3671875,-276.3671875,578.61328125,694.82421875,0.0
2024-06-20 17:33:31.531,-825.68359375,-840.33203125,-967.28515625,-863.76953125,0.0
2024-06-20 17:33:31.535,547.36328125,644.53125,-1000.0,-1000.0,0.0
2024-06-20 17:33:31.539,-1000.0,-965.33203125,479.00390625,326.66015625,0.0
2024-06-20 17:33:31.543,-629.8828125,-775.390625,-933.10546875,-832.51953125,0.0
2024-06-20 17:33:31.546,923.828125,796.38671875,-354.4921875,-171.38671875,0.0
2024-06-20 17:33:31.550,-952.63671875,-902.83203125,-1000.0,-1000.0,0.0
2024-06-20 17:33:31.554,-354.98046875,-263.671875,-104.98046875,-191.40625,0.0
2024-06-20 17:33:31.558,-1000.0,-1000.0,-814.453125,-815.4296875,0.0
2024-06-20 17:33:31.562,214.84375,43.9453125,139.6484375,226.07421875,0.0
2024-06-20 17:33:31.566,-767.08984375,-772.94921875,-1000.0,-1000.0,0.0
2024-06-20 17:33:31.570,164.0625,197.265625,-266.6015625,-269.53125,0.0
2024-06-20 17:33:31.574,-1000.0,-1000.0,-822.265625,-814.453125,0.0
2024-06-20 17:33:31.578,-255.859375,-259.27734375,301.7578125,362.3046875,0.0
2024-06-20 17:33:31.582,-801.7578125,-803.22265625,-1000.0,-1000.0,0.0
2024-06-20 17:33:31.586,226.5625,296.875,-627.9296875,-692.3828125,0.0
2024-06-20 17:33:31.589,-1000.0,-1000.0,984.86328125,922.36328125,0.0
2024-06-20 17:33:31.593,-311.03515625,-426.26953125,676.26953125,816.89453125,0.0
2024-06-20 17:33:31.597,-859.86328125,-927.734375,-871.58203125,-716.796875,0.0
2024-06-20 17:33:31.601,663.0859375,796.38671875,-1000.0,-1000.0,0.0
2024-06-20 17:33:31.605,-960.9375,-790.52734375,298.33984375,164.55078125,0.0
2024-06-20 17:33:31.609,-768.06640625,-916.50390625,-858.3984375,-805.6640625,0.0
2024-06-20 17:33:31.613,783.203125,604.98046875,-200.68359375,-54.19921875,0.0
2024-06-20 17:33:31.617,-868.1640625,-820.80078125,-1000.0,-1000.0,0.0
2024-06-20 17:33:31.621,-180.17578125,-14.6484375,-170.8984375,-236.328125,0.0
2024-06-20 17:33:31.625,-1000.0,-1000.0,-815.91796875,-822.265625,0.0
2024-06-20 17:33:31.629,88.8671875,-86.9140625,202.1484375,235.3515625,0.0
2024-06-20 17:33:31.632,-763.18359375,-775.87890625,-1000.0,-1000.0,0.0
2024-06-20 17:33:31.636,191.89453125,208.0078125,-319.82421875,-354.4921875,0.0
2024-06-20 17:33:31.640,-1000.0,-1000.0,-836.42578125,-845.703125,0.0
2024-06-20 17:33:31.644,-274.4140625,-275.390625,361.328125,454.1015625,0.0
2024-06-20 17:33:31.648,-806.640625,-814.94140625,-1000.0,-1000.0,0.0
2024-06-20 17:33:31.652,351.5625,453.125,-740.72265625,-831.0546875,0.0
2024-06-20 17:33:31.656,-1000.0,-1000.0,859.375,742.1875,0.0
2024-06-20 17:33:31.660,-425.29296875,-538.57421875,804.19921875,957.03125,0.0
2024-06-20 17:33:31.664,-927.734375,991.69921875,-732.91015625,-542.48046875,0.0
2024-06-20 17:33:31.668,820.3125,958.49609375,-1000.0,-1000.0,0.0
2024-06-20 17:33:31.671,-753.41796875,-515.13671875,162.59765625,53.7109375,0.0
2024-06-20 17:33:31.675,-930.6640625,-1000.0,-819.82421875,-795.8984375,0.0
2024-06-20 17:33:31.679,602.5390625,346.19140625,-67.87109375,60.546875,0.0
2024-06-20 17:33:31.683,-823.2421875,-786.62109375,-1000.0,-1000.0,0.0
2024-06-20 17:33:31.687,-66.40625,49.8046875,-226.5625,-247.55859375,0.0
2024-06-20 17:33:31.691,-1000.0,-1000.0,-822.265625,-819.82421875,0.0
2024-06-20 17:33:31.695,-27.83203125,-196.77734375,232.91015625,238.28125,0.0
2024-06-20 17:33:31.699,-769.53125,-795.41015625,-1000.0,-1000.0,0.0
2024-06-20 17:33:31.703,201.66015625,220.703125,-407.2265625,-470.21484375,0.0
2024-06-20 17:33:31.707,-1000.0,-1000.0,-872.0703125,-901.3671875,0.0
2024-06-20 17:33:31.711,-276.85546875,-274.4140625,456.0546875,564.453125,0.0
2024-06-20 17:33:31.714,-815.4296875,-827.63671875,-1000.0,-1000.0,0.0
2024-06-20 17:33:31.718,461.42578125,564.453125,-874.0234375,-971.19140625,0.0
2024-06-20 17:33:31.722,-1000.0,-1000.0,678.7109375,524.90234375,0.0
2024-06-20 17:33:31.726,-537.109375,-662.109375,941.89453125,-907.71484375,0.0
2024-06-20 17:33:31.730,996.58203125,902.83203125,-549.31640625,-332.51953125,0.0
2024-06-20 17:33:31.734,950.1953125,-951.66015625,-1000.0,-1000.0,0.0
2024-06-20 17:33:31.738,-545.41015625,-358.3984375,6.8359375,-80.078125,0.0
2024-06-20 17:33:31.742,-1000.0,-1000.0,-809.08203125,-799.8046875,0.0
2024-06-20 17:33:31.746,408.69140625,193.84765625,57.6171875,183.59375,0.0
2024-06-20 17:33:31.750,-788.0859375,-770.99609375,-1000.0,-1000.0,0.0
2024-06-20 17:33:31.754,50.29296875,117.1875,-247.0703125,-261.71875,0.0
2024-06-20 17:33:31.757,-1000.0,-1000.0,-821.77734375,-814.94140625,0.0
2024-06-20 17:33:31.761,-143.06640625,-229.98046875,246.58203125,259.765625,0.0
2024-06-20 17:33:31.765,-781.25,-800.29296875,-1000.0,-1000.0,0.0
2024-06-20 17:33:31.769,212.40234375,226.5625,-525.390625,-587.890625,0.0
2024-06-20 17:33:31.773,-1000.0,-1000.0,-932.12890625,-975.5859375,0.0
2024-06-20 17:33:31.777,-276.3671875,-326.171875,547.36328125,667.48046875,0.0
2024-06-20 17:33:31.781,-827.63671875,-864.2578125,-990.72265625,-891.6015625,0.0
2024-06-20 17:33:31.785,562.5,662.59765625,-1000.0,-1000.0,0.0
2024-06-20 17:33:31.789,-1000.0,-961.42578125,445.3125,298.828125,0.0
2024-06-20 17:33:31.793,-636.23046875,-775.87890625,-933.10546875,-831.0546875,0.0
2024-06-20 17:33:31.796,915.0390625,784.1796875,-359.375,-168.45703125,0.0
2024-06-20 17:33:31.800,-934.5703125,-880.37109375,-1000.0,-1000.0,0.0
2024-06-20 17:33:31.804,-322.75390625,-229.00390625,-113.76953125,-196.2890625,0.0
2024-06-20 17:33:31.808,-1000.0,-1000.0,-813.96484375,-816.89453125,0.0
2024-06-20 17:33:31.812,211.9140625,110.83984375,158.203125,228.02734375,0.0
2024-06-20 17:33:31.816,-765.13671875,-763.671875,-1000.0,-1000.0,0.0
2024-06-20 17:33:31.820,175.29296875,191.40625,-271.97265625,-279.78515625,0.0
2024-06-20 17:33:31.824,-1000.0,-1000.0,-822.265625,-817.87109375,0.0
2024-06-20 17:33:31.828,-267.578125,-273.92578125,278.3203125,337.890625,0.0
2024-06-20 17:33:31.832,-803.22265625,-806.640625,-1000.0,-1000.0,0.0
2024-06-20 17:33:31.836,243.1640625,351.07421875,-627.9296875,-697.265625,0.0
2024-06-20 17:33:31.839,-1000.0,-1000.0,979.00390625,909.1796875,0.0
2024-06-20 17:33:31.843,-318.84765625,-432.12890625,681.15234375,822.265625,0.0
2024-06-20 17:33:31.847,-866.69921875,-933.10546875,-869.62890625,-713.37890625,0.0
2024-06-20 17:33:31.851,687.01171875,831.0546875,-1000.0,-1000.0,0.0
2024-06-20 17:33:31.855,-935.05859375,-747.0703125,297.8515625,163.0859375,0.0
2024-06-20 17:33:31.859,-776.85546875,-920.41015625,-855.95703125,-805.17578125,0.0
2024-06-20 17:33:31.863,778.80859375,623.046875,-190.4296875,-50.78125,0.0
2024-06-20 17:33:31.867,-866.2109375,-830.56640625,-1000.0,-1000.0,0.0
2024-06-20 17:33:31.871,-176.7578125,-83.0078125,-192.87109375,-236.81640625,0.0
2024-06-20 17:33:31.875,-1000.0,-1000.0,-820.3125,-822.265625,0.0
2024-06-20 17:33:31.879,85.44921875,-57.12890625,211.9140625,236.328125,0.0
2024-06-20 17:33:31.882,-763.18359375,-776.85546875,-1000.0,-1000.0,0.0
2024-06-20 17:33:31.886,192.3828125,206.54296875,-326.171875,-368.65234375,0.0
2024-06-20 17:33:31.890,-1000.0,-1000.0,-837.890625,-851.5625,0.0
2024-06-20 17:33:31.894,-275.390625,-276.85546875,358.3984375,455.078125,0.0
2024-06-20 17:33:31.898,-807.12890625,-820.80078125,-1000.0,-1000.0,0.0
2024-06-20 17:33:31.902,367.67578125,512.6953125,-725.5859375,-822.265625,0.0
2024-06-20 17:33:31.906,-1000.0,-1000.0,875.9765625,752.9296875,0.0
2024-06-20 17:33:31.910,-439.453125,-595.21484375,795.41015625,951.66015625,0.0
2024-06-20 17:33:31.914,-934.08203125,985.3515625,-729.98046875,-542.48046875,0.0
2024-06-20 17:33:31.918,830.078125,921.875,-1000.0,-1000.0,0.0
2024-06-20 17:33:31.921,-738.76953125,-569.82421875,122.55859375,30.76171875,0.0
2024-06-20 17:33:31.925,-944.82421875,-1000.0,-821.77734375,-798.828125,0.0
2024-06-20 17:33:31.929,584.9609375,300.78125,-62.98828125,65.4296875,0.0
2024-06-20 17:33:31.933,-820.80078125,-787.59765625,-1000.0,-1000.0,0.0
2024-06-20 17:33:31.937,-57.12890625,38.0859375,-230.46875,-247.55859375,0.0
2024-06-20 17:33:31.941,-1000.0,-1000.0,-823.73046875,-820.3125,0.0
2024-06-20 17:33:31.945,-55.6640625,-215.8203125,236.328125,238.76953125,0.0
2024-06-20 17:33:31.949,-773.92578125,-801.7578125,-1000.0,-1000.0,0.0
2024-06-20 17:33:31.953,205.078125,224.12109375,-416.015625,-486.328125,0.0
2024-06-20 17:33:31.957,-1000.0,-1000.0,-875.0,-908.203125,0.0
2024-06-20 17:33:31.961,-276.85546875,-273.92578125,449.70703125,556.15234375,0.0
2024-06-20 17:33:31.964,-816.40625,-825.68359375,-1000.0,-1000.0,0.0
2024-06-20 17:33:31.968,468.75,544.43359375,-888.671875,-982.421875,0.0
2024-06-20 17:33:31.972,-1000.0,-1000.0,645.99609375,496.09375,0.0
2024-06-20 17:33:31.976,-546.875,-655.76171875,970.703125,-892.08984375,0.0
2024-06-20 17:33:31.980,986.81640625,890.625,-513.671875,-308.10546875,0.0
2024-06-20 17:33:31.984,967.28515625,-921.38671875,-1000.0,-1000.0,0.0
2024-06-20 17:33:31.988,-520.99609375,-335.9375,3.90625,-83.984375,0.0
2024-06-20 17:33:31.992,-1000.0,-1000.0,-802.24609375,-798.33984375,0.0
2024-06-20 17:33:31.996,402.34375,289.0625,98.6328125,197.265625,0.0
2024-06-20 17:33:32.000,-786.62109375,-770.5078125,-1000.0,-1000.0,0.0
2024-06-20 17:33:32.004,63.4765625,158.69140625,-252.44140625,-264.6484375,0.0
2024-06-20 17:33:32.007,-1000.0,-1000.0,-817.87109375,-813.96484375,0.0
2024-06-20 17:33:32.011,-170.8984375,-261.71875,251.46484375,272.4609375,0.0
2024-06-20 17:33:32.015,-787.109375,-803.7109375,-1000.0,-1000.0,0.0
2024-06-20 17:33:32.019,215.8203125,291.9921875,-508.30078125,-585.44921875,0.0
2024-06-20 17:33:32.023,-1000.0,-1000.0,-924.8046875,-975.09765625,0.0
2024-06-20 17:33:32.027,-275.390625,-377.9296875,558.59375,679.19921875,0.0
2024-06-20 17:33:32.031,-828.61328125,-873.53515625,-975.09765625,-874.0234375,0.0
2024-06-20 17:33:32.035,570.3125,666.9921875,-1000.0,-1000.0,0.0
2024-06-20 17:33:32.039,-1000.0,-990.234375,420.41015625,280.2734375,0.0
2024-06-20 17:33:32.043,-630.37109375,-682.12890625,-898.92578125,-825.68359375,0.0
2024-06-20 17:33:32.046,920.41015625,887.20703125,-295.41015625,-150.87890625,0.0
2024-06-20 17:33:32.050,-937.01171875,-918.9453125,-1000.0,-1000.0,0.0
2024-06-20 17:33:32.054,-319.82421875,-255.37109375,-129.39453125,-206.0546875,0.0
2024-06-20 17:33:32.058,-1000.0,-1000.0,-813.96484375,-818.84765625,0.0
2024-06-20 17:33:32.062,198.73046875,55.17578125,166.50390625,229.00390625,0.0
2024-06-20 17:33:32.066,-764.16015625,-771.97265625,-1000.0,-1000.0,0.0
2024-06-20 17:33:32.070,185.05859375,197.265625,-276.3671875,-287.109375,0.0
2024-06-20 17:33:32.074,-1000.0,-1000.0,-822.75390625,-820.3125,0.0
2024-06-20 17:33:32.078,-270.5078125,-275.87890625,295.8984375,362.3046875,0.0
2024-06-20 17:33:32.082,-803.22265625,-809.5703125,-1000.0,-1000.0,0.0
2024-06-20 17:33:32.086,264.6484375,401.85546875,-622.0703125,-701.66015625,0.0
2024-06-20 17:33:32.089,-1000.0,-1000.0,987.3046875,905.76171875,0.0
2024-06-20 17:33:32.093,-341.796875,-481.93359375,679.19921875,836.9140625,0.0
2024-06-20 17:33:32.097,-875.48828125,-942.3828125,-858.88671875,-691.89453125,0.0
2024-06-20 17:33:32.101,704.1015625,815.91796875,-1000.0,-1000.0,0.0
2024-06-20 17:33:32.105,-914.0625,-748.53515625,258.7890625,142.08984375,0.0
2024-06-20 17:33:32.109,-803.22265625,-984.86328125,-850.5859375,-804.6875,0.0
2024-06-20 17:33:32.113,749.51171875,513.18359375,-176.26953125,-40.0390625,0.0
2024-06-20 17:33:32.117,-856.4453125,-811.03515625,-1000.0,-1000.0,0.0
2024-06-20 17:33:32.121,-150.390625,-25.390625,-195.3125,-237.3046875,0.0
2024-06-20 17:33:32.125,-1000.0,-1000.0,-819.82421875,-822.75390625,0.0
2024-06-20 17:33:32.129,55.6640625,-92.28515625,216.30859375,236.81640625,0.0
2024-06-20 17:33:32.132,-764.6484375,-777.83203125,-1000.0,-1000.0,0.0
2024-06-20 17:33:32.136,194.82421875,208.984375,-330.56640625,-385.25390625,0.0
2024-06-20 17:33:32.140,-1000.0,-1000.0,-839.35546875,-858.3984375,0.0
2024-06-20 17:33:32.144,-275.390625,-275.87890625,364.74609375,468.75,0.0
2024-06-20 17:33:32.148,-808.59375,-816.89453125,-1000.0,-1000.0,0.0
2024-06-20 17:33:32.152,380.859375,472.65625,-773.4375,-868.1640625,0.0
2024-06-20 17:33:32.156,-1000.0,-1000.0,815.4296875,685.05859375,0.0
2024-06-20 17:33:32.160,-452.63671875,-573.2421875,835.9375,993.65234375,0.0
2024-06-20 17:33:32.164,-945.3125,971.6796875,-688.4765625,-493.65234375,0.0
2024-06-20 17:33:32.168,854.4921875,970.21484375,-1000.0,-1000.0,0.0
2024-06-20 17:33:32.171,-707.51953125,-483.88671875,102.05078125,21.97265625,0.0
2024-06-20 17:33:32.175,-956.0546875,-1000.0,-819.82421875,-796.875,0.0
2024-06-20 17:33:32.179,572.75390625,259.765625,-48.33984375,79.58984375,0.0
2024-06-20 17:33:32.183,-815.91796875,-775.87890625,-1000.0,-1000.0,0.0
2024-06-20 17:33:32.187,-37.59765625,121.09375,-231.4453125,-249.0234375,0.0
2024-06-20 17:33:32.191,-1000.0,-1000.0,-822.75390625,-819.3359375,0.0
2024-06-20 17:33:32.195,-73.2421875,-238.28125,236.81640625,238.76953125,0.0
2024-06-20 17:33:32.199,-775.87890625,-798.828125,-1000.0,-1000.0,0.0
2024-06-20 17:33:32.203,206.54296875,223.6328125,-424.31640625,-497.0703125,0.0
2024-06-20 17:33:32.207,-1000.0,-1000.0,-879.39453125,-915.52734375,0.0
2024-06-20 17:33:32.211,-276.85546875,-273.92578125,467.7734375,583.0078125,0.0
2024-06-20 17:33:32.214,-818.359375,-829.1015625,-1000.0,-985.3515625,0.0
2024-06-20 17:33:32.218,490.234375,570.3125,-912.109375,-998.53515625,0.0
2024-06-20 17:33:32.222,-1000.0,-1000.0,623.53515625,479.4921875,0.0
2024-06-20 17:33:32.226,-562.5,-738.76953125,964.84375,-889.16015625,0.0
2024-06-20 17:33:32.230,978.515625,821.77734375,-519.04296875,-302.24609375,0.0
2024-06-20 17:33:32.234,979.4921875,-919.921875,-1000.0,-1000.0,0.0
2024-06-20 17:33:32.238,-496.09375,-323.2421875,-32.71484375,-101.5625,0.0
2024-06-20 17:33:32.242,-1000.0,-1000.0,-811.5234375,-802.24609375,0.0
2024-06-20 17:33:32.246,368.65234375,155.2734375,87.40234375,195.3125,0.0
2024-06-20 17:33:32.250,-784.1796875,-767.578125,-1000.0,-1000.0,0.0
2024-06-20 17:33:32.254,76.171875,171.38671875,-250.0,-264.16015625,0.0
2024-06-20 17:33:32.257,-1000.0,-1000.0,-820.80078125,-814.94140625,0.0
2024-06-20 17:33:32.261,-206.54296875,-268.06640625,252.9296875,281.25,0.0
2024-06-20 17:33:32.265,-795.41015625,-801.26953125,-1000.0,-1000.0,0.0
2024-06-20 17:33:32.269,220.703125,273.4375,-550.29296875,-619.62890625,0.0
2024-06-20 17:33:32.273,-1000.0,-1000.0,-954.58984375,993.65234375,0.0
2024-06-20 17:33:32.277,-274.90234375,-300.78125,616.69921875,732.91015625,0.0
2024-06-20 17:33:32.281,-829.58984375,-832.51953125,-929.19921875,-823.73046875,0.0
2024-06-20 17:33:32.285,572.265625,574.21875,-1000.0,-1000.0,0.0
2024-06-20 17:33:32.289,-1000.0,-1000.0,386.23046875,264.16015625,0.0
2024-06-20 17:33:32.293,-660.15625,-861.81640625,-913.57421875,-824.21875,0.0
2024-06-20 17:33:32.296,898.92578125,682.6171875,-321.2890625,-145.5078125,0.0
2024-06-20 17:33:32.300,-924.31640625,-906.25,-1000.0,-1000.0,0.0
2024-06-20 17:33:32.304,-296.38671875,-309.5703125,-148.4375,-217.28515625,0.0
2024-06-20 17:33:32.308,-1000.0,-1000.0,-819.82421875,-822.265625,0.0
2024-06-20 17:33:32.312,152.34375,21.484375,170.8984375,231.93359375,0.0
2024-06-20 17:33:32.316,-764.6484375,-776.85546875,-1000.0,-1000.0,0.0
2024-06-20 17:33:32.320,187.98828125,198.73046875,-286.1328125,-307.12890625,0.0
2024-06-20 17:33:32.324,-1000.0,-1000.0,-826.66015625,-827.63671875,0.0
2024-06-20 17:33:32.328,-270.5078125,-252.9296875,311.5234375,394.04296875,0.0
2024-06-20 17:33:32.332,-803.7109375,-803.7109375,-1000.0,-1000.0,0.0
2024-06-20 17:33:32.336,274.90234375,360.83984375,-661.1328125,-736.328125,0.0
2024-06-20 17:33:32.339,-1000.0,-1000.0,949.70703125,868.1640625,0.0
2024-06-20 17:33:32.343,-356.93359375,-479.4921875,718.75,868.65234375,0.0
2024-06-20 17:33:32.347,-884.27734375,-978.02734375,-832.51953125,-661.1328125,0.0
2024-06-20 17:33:32.351,724.609375,910.15625,-1000.0,-1000.0,0.0
2024-06-20 17:33:32.355,-891.6015625,-625.0,264.16015625,142.08984375,0.0
2024-06-20 17:33:32.359,-819.3359375,-991.69921875,-837.40234375,-796.38671875,0.0
2024-06-20 17:33:32.363,736.81640625,520.99609375,-140.625,6.8359375,0.0
2024-06-20 17:33:32.367,-855.46875,-804.6875,-1000.0,-1000.0,0.0
2024-06-20 17:33:32.371,-147.94921875,9.765625,-196.2890625,-243.1640625,0.0
2024-06-20 17:33:32.375,-1000.0,-1000.0,-818.84765625,-820.80078125,0.0
2024-06-20 17:33:32.379,30.2734375,-109.86328125,219.23828125,237.3046875,0.0
2024-06-20 17:33:32.382,-768.06640625,-777.83203125,-1000.0,-1000.0,0.0
2024-06-20 17:33:32.386,197.75390625,209.9609375,-358.88671875,-414.0625,0.0
2024-06-20 17:33:32.390,-1000.0,-1000.0,-850.5859375,-871.58203125,0.0
2024-06-20 17:33:32.394,-275.390625,-275.87890625,387.6953125,500.48828125,0.0
2024-06-20 17:33:32.398,-809.5703125,-818.359375,-1000.0,-1000.0,0.0
2024-06-20 17:33:32.402,388.671875,479.98046875,-786.62109375,-875.0,0.0
2024-06-20 17:33:32.406,-1000.0,-1000.0,801.7578125,677.734375,0.0
2024-06-20 17:33:32.410,-469.23828125,-606.4453125,848.14453125,-991.69921875,0.0
2024-06-20 17:33:32.414,-951.66015625,931.15234375,-682.12890625,-474.12109375,0.0
2024-06-20 17:33:32.418,858.3984375,-970.21484375,-1000.0,-1000.0,0.0
2024-06-20 17:33:32.421,-682.6171875,-378.41796875,123.53515625,31.73828125,0.0
2024-06-20 17:33:32.425,-1000.0,-1000.0,-811.5234375,-790.52734375,0.0
2024-06-20 17:33:32.429,490.234375,208.49609375,-27.83203125,120.60546875,0.0
2024-06-20 17:33:32.433,-808.59375,-777.83203125,-1000.0,-1000.0,0.0
2024-06-20 17:33:32.437,-34.1796875,62.01171875,-238.76953125,-255.37109375,0.0
2024-06-20 17:33:32.441,-1000.0,-1000.0,-823.73046875,-816.40625,0.0
2024-06-20 17:33:32.445,-107.421875,-234.375,237.79296875,237.79296875,0.0
2024-06-20 17:33:32.449,-782.2265625,-804.6875,-1000.0,-1000.0,0.0
2024-06-20 17:33:32.453,210.9375,226.07421875,-441.40625,-492.67578125,0.0
2024-06-20 17:33:32.457,-1000.0,-1000.0,-889.16015625,-925.29296875,0.0
2024-06-20 17:33:32.461,-275.87890625,-273.92578125,512.20703125,643.06640625,0.0
2024-06-20 17:33:32.464,-818.84765625,-828.125,-1000.0,-935.05859375,0.0
2024-06-20 17:33:32.468,486.328125,560.546875,-924.31640625,-1000.0,0.0
2024-06-20 17:33:32.472,-1000.0,-1000.0,611.81640625,481.4453125,0.0
2024-06-20 17:33:32.476,-583.984375,-753.90625,982.91015625,-867.1875,0.0
2024-06-20 17:33:32.480,966.796875,805.17578125,-492.1875,-253.41796875,0.0
2024-06-20 17:33:32.484,979.00390625,-918.45703125,-1000.0,-1000.0,0.0
2024-06-20 17:33:32.488,-482.421875,-321.77734375,-38.57421875,-94.7265625,0.0
2024-06-20 17:33:32.492,-1000.0,-1000.0,-808.10546875,-796.38671875,0.0
2024-06-20 17:33:32.496,291.9921875,133.30078125,112.79296875,213.8671875,0.0
2024-06-20 17:33:32.500,-780.2734375,-767.578125,-1000.0,-1000.0,0.0
2024-06-20 17:33:32.504,80.078125,177.734375,-253.41796875,-269.53125,0.0
2024-06-20 17:33:32.507,-1000.0,-1000.0,-817.87109375,-812.01171875,0.0
2024-06-20 17:33:32.511,-229.00390625,-270.5078125,263.18359375,316.89453125,0.0
2024-06-20 17:33:32.515,-801.26953125,-805.6640625,-1000.0,-1000.0,0.0
2024-06-20 17:33:32.519,224.12109375,307.6171875,-533.69140625,-597.16796875,0.0
2024-06-20 17:33:32.523,-1000.0,-1000.0,-939.94140625,-986.81640625,0.0
2024-06-20 17:33:32.527,-274.4140625,-405.76171875,592.7734375,729.4921875,0.0
2024-06-20 17:33:32.531,-833.0078125,-886.71875,-941.89453125,-817.87109375,0.0
2024-06-20 17:33:32.535,595.21484375,680.17578125,-1000.0,-1000.0,0.0
2024-06-20 17:33:32.539,-1000.0,-923.828125,373.53515625,256.8359375,0.0
2024-06-20 17:33:32.543,-681.15234375,-883.7890625,-896.97265625,-816.40625,0.0
2024-06-20 17:33:32.546,876.46484375,653.80859375,-291.9921875,-110.83984375,0.0
2024-06-20 17:33:32.550,-900.87890625,-859.86328125,-1000.0,-1000.0,0.0
2024-06-20 17:33:32.554,-257.8125,-211.9140625,-147.4609375,-218.75,0.0
2024-06-20 17:33:32.558,-1000.0,-1000.0,-815.91796875,-819.3359375,0.0
2024-06-20 17:33:32.562,141.6015625,46.38671875,187.98828125,230.95703125,0.0
2024-06-20 17:33:32.566,-764.16015625,-770.01953125,-1000.0,-1000.0,0.0
2024-06-20 17:33:32.570,188.96484375,197.265625,-286.62109375,-303.7109375,0.0
2024-06-20 17:33:32.574,-1000.0,-1000.0,-824.70703125,-826.171875,0.0
2024-06-20 17:33:32.578,-271.484375,-272.94921875,298.828125,381.34765625,0.0
2024-06-20 17:33:32.582,-803.7109375,-808.10546875,-1000.0,-1000.0,0.0
2024-06-20 17:33:32.586,290.0390625,338.8671875,-683.10546875,-747.0703125,0.0
2024-06-20 17:33:32.589,-1000.0,-1000.0,916.50390625,840.8203125,0.0
2024-06-20 17:33:32.593,-363.28125,-474.609375,755.859375,904.78515625,0.0
2024-06-20 17:33:32.597,-886.71875,-958.0078125,-792.96875,-613.28125,0.0
2024-06-20 17:33:32.601,732.91015625,844.7265625,-1000.0,-1000.0,0.0
2024-06-20 17:33:32.605,-865.234375,-698.73046875,229.00390625,128.90625,0.0
2024-06-20 17:33:32.609,-871.58203125,-1000.0,-831.0546875,-793.45703125,0.0
2024-06-20 17:33:32.613,672.8515625,463.37890625,-113.28125,29.78515625,0.0
2024-06-20 17:33:32.617,-840.8203125,-804.19921875,-1000.0,-1000.0,0.0
2024-06-20 17:33:32.621,-164.0625,-78.61328125,-190.4296875,-226.5625,0.0
2024-06-20 17:33:32.625,-1000.0,-1000.0,-875.48828125,-874.51171875,0.0
2024-06-20 17:33:32.629,90.8203125,-27.34375,137.6953125,148.4375,0.0
2024-06-20 17:33:32.632,-782.71484375,-796.875,-1000.0,-1000.0,0.0
2024-06-20 17:33:32.636,200.68359375,213.37890625,-353.515625,-401.3671875,0.0
2024-06-20 17:33:32.640,-1000.0,-1000.0,-850.09765625,-871.58203125,0.0
2024-06-20 17:33:32.644,-275.87890625,-275.87890625,408.203125,527.34375,0.0
2024-06-20 17:33:32.648,-810.546875,-824.70703125,-1000.0,-1000.0,0.0
2024-06-20 17:33:32.652,406.73828125,534.66796875,-772.4609375,-865.72265625,0.0
2024-06-20 17:33:32.656,-1000.0,-1000.0,817.87109375,686.03515625,0.0
2024-06-20 17:33:32.660,-492.67578125,-665.0390625,862.79296875,-967.7734375,0.0
2024-06-20 17:33:32.664,-962.40234375,932.6171875,-647.4609375,-422.36328125,0.0
2024-06-20 17:33:32.668,867.67578125,953.61328125,-1000.0,-1000.0,0.0
2024-06-20 17:33:32.671,-667.96875,-507.32421875,68.84765625,11.23046875,0.0
2024-06-20 17:33:32.675,-1000.0,-1000.0,-814.453125,-790.0390625,0.0
2024-06-20 17:33:32.679,458.49609375,148.4375,-12.20703125,135.7421875,0.0
2024-06-20 17:33:32.683,-803.7109375,-776.3671875,-1000.0,-1000.0,0.0
2024-06-20 17:33:32.687,-16.6015625,145.99609375,-237.79296875,-256.8359375,0.0
2024-06-20 17:33:32.691,-1000.0,-1000.0,-822.75390625,-815.4296875,0.0
2024-06-20 17:33:32.695,-125.0,-252.9296875,237.3046875,237.3046875,0.0
2024-06-20 17:33:32.699,-784.1796875,-805.17578125,-1000.0,-1000.0,0.0
2024-06-20 17:33:32.703,212.890625,229.98046875,-444.3359375,-494.140625,0.0
2024-06-20 17:33:32.707,-1000.0,-1000.0,-889.16015625,-930.6640625,0.0
2024-06-20 17:33:32.711,-275.87890625,-356.93359375,497.55859375,663.57421875,0.0
2024-06-20 17:33:32.714,-819.82421875,-854.4921875,-1000.0,-920.8984375,0.0
2024-06-20 17:33:32.718,483.3984375,545.41015625,-926.7578125,-993.1640625,0.0
2024-06-20 17:33:32.722,-1000.0,-1000.0,574.70703125,478.515625,0.0
2024-06-20 17:33:32.726,-628.90625,-754.39453125,-958.49609375,-835.9375,0.0
2024-06-20 17:33:32.730,939.453125,789.0625,-397.94921875,-166.015625,0.0
2024-06-20 17:33:32.734,983.3984375,-904.296875,-1000.0,-1000.0,0.0
2024-06-20 17:33:32.738,-480.95703125,-322.265625,-40.52734375,-89.84375,0.0
2024-06-20 17:33:32.742,-1000.0,-1000.0,-800.78125,-789.55078125,0.0
2024-06-20 17:33:32.746,249.0234375,204.1015625,144.04296875,212.40234375,0.0
2024-06-20 17:33:32.750,-778.3203125,-766.6015625,-1000.0,-1000.0,0.0
2024-06-20 17:33:32.754,87.890625,169.921875,-257.8125,-270.99609375,0.0
2024-06-20 17:33:32.757,-1000.0,-1000.0,-816.40625,-812.98828125,0.0
2024-06-20 17:33:32.761,-248.046875,-267.08984375,261.71875,345.703125,0.0
2024-06-20 17:33:32.765,-807.12890625,-808.59375,-1000.0,-1000.0,0.0
2024-06-20 17:33:32.769,228.02734375,263.18359375,-558.10546875,-607.91015625,0.0
2024-06-20 17:33:32.773,-1000.0,-1000.0,-958.984375,989.2578125,0.0
2024-06-20 17:33:32.777,-299.8046875,-437.98828125,625.0,804.19921875,0.0
2024-06-20 17:33:32.781,-842.28515625,-906.25,-919.43359375,-730.95703125,0.0
2024-06-20 17:33:32.785,602.05078125,686.03515625,-1000.0,-1000.0,0.0
2024-06-20 17:33:32.789,-1000.0,-937.5,347.16796875,255.859375,0.0
2024-06-20 17:33:32.793,-717.28515625,-854.98046875,-866.2109375,-803.7109375,0.0
2024-06-20 17:33:32.796,839.35546875,715.33203125,-214.84375,-54.6875,0.0
2024-06-20 17:33:32.800,-897.4609375,-916.015625,-1000.0,-1000.0,0.0
2024-06-20 17:33:32.804,-261.23046875,-309.5703125,-167.48046875,-230.95703125,0.0
2024-06-20 17:33:32.808,-1000.0,-1000.0,-815.91796875,-818.359375,0.0
2024-06-20 17:33:32.812,123.046875,-16.6015625,190.91796875,232.91015625,0.0
2024-06-20 17:33:32.816,-765.625,-784.66796875,-1000.0,-1000.0,0.0
2024-06-20 17:33:32.820,190.4296875,205.078125,-293.9453125,-325.68359375,0.0
2024-06-20 17:33:32.824,-1000.0,-1000.0,-827.1484375,-833.984375,0.0
2024-06-20 17:33:32.828,-273.4375,-275.390625,323.2421875,404.296875,0.0
2024-06-20 17:33:32.832,-803.22265625,-812.01171875,-1000.0,-1000.0,0.0
2024-06-20 17:33:32.836,320.3125,423.33984375,-682.12890625,-773.4375,0.0
2024-06-20 17:33:32.839,-1000.0,-1000.0,923.33984375,829.58984375,0.0
2024-06-20 17:33:32.843,-361.81640625,-520.99609375,751.46484375,875.48828125,0.0
2024-06-20 17:33:32.847,-895.99609375,-986.328125,-787.59765625,-647.94921875,0.0
2024-06-20 17:33:32.851,782.2265625,906.25,-1000.0,-1000.0,0.0
2024-06-20 17:33:32.855,-817.87109375,-624.0234375,194.82421875,76.171875,0.0
2024-06-20 17:33:32.859,-842.7734375,-1000.0,-829.1015625,-804.19921875,0.0
2024-06-20 17:33:32.863,712.40234375,467.7734375,-103.02734375,7.32421875,0.0
2024-06-20 17:33:32.867,-840.8203125,-798.33984375,-1000.0,-1000.0,0.0
2024-06-20 17:33:32.871,-88.37890625,10.7421875,-216.30859375,-241.69921875,0.0
2024-06-20 17:33:32.875,-1000.0,-1000.0,-820.3125,-822.265625,0.0
2024-06-20 17:33:32.879,13.18359375,-116.69921875,227.5390625,238.76953125,0.0
2024-06-20 17:33:32.882,-765.625,-779.296875,-1000.0,-1000.0,0.0
2024-06-20 17:33:32.886,198.2421875,210.9375,-355.95703125,-443.359375,0.0
2024-06-20 17:33:32.890,-1000.0,-1000.0,-848.6328125,-882.8125,0.0
2024-06-20 17:33:32.894,-276.85546875,-275.87890625,412.59765625,501.46484375,0.0
2024-06-20 17:33:32.898,-810.546875,-815.4296875,-1000.0,-1000.0,0.0
2024-06-20 17:33:32.902,430.17578125,497.0703125,-819.82421875,-930.17578125,0.0
2024-06-20 17:33:32.906,-1000.0,-1000.0,736.81640625,586.9140625,0.0
2024-06-20 17:33:32.910,-464.35546875,-481.4453125,935.05859375,-958.0078125,0.0
2024-06-20 17:33:32.914,-959.47265625,-983.88671875,-556.640625,-416.015625,0.0
2024-06-20 17:33:32.918,903.80859375,972.16796875,-1000.0,-1000.0,0.0
2024-06-20 17:33:32.921,-611.81640625,-416.9921875,56.15234375,-52.734375,0.0
2024-06-20 17:33:32.925,-1000.0,-1000.0,-808.59375,-802.24609375,0.0
2024-06-20 17:33:32.929,476.5625,178.7109375,18.5546875,133.30078125,0.0
2024-06-20 17:33:32.933,-797.8515625,-771.97265625,-1000.0,-1000.0,0.0
2024-06-20 17:33:32.937,30.2734375,157.71484375,-243.1640625,-254.39453125,0.0
2024-06-20 17:33:32.941,-1000.0,-1000.0,-822.265625,-817.87109375,0.0
2024-06-20 17:33:32.945,-118.65234375,-249.0234375,238.28125,238.76953125,0.0
2024-06-20 17:33:32.949,-778.3203125,-799.8046875,-1000.0,-1000.0,0.0
2024-06-20 17:33:32.953,209.9609375,226.07421875,-473.6328125,-545.41015625,0.0
2024-06-20 17:33:32.957,-1000.0,-1000.0,-905.2734375,-940.91796875,0.0
2024-06-20 17:33:32.961,-276.85546875,-305.17578125,522.94921875,604.4921875,0.0
2024-06-20 17:33:32.964,-822.265625,-851.07421875,-1000.0,-962.890625,0.0
2024-06-20 17:33:32.968,525.390625,632.8125,-950.1953125,-1000.0,0.0
2024-06-20 17:33:32.972,-1000.0,-990.72265625,544.921875,381.34765625,0.0
2024-06-20 17:33:32.976,-602.5390625,-749.51171875,-954.58984375,-850.5859375,0.0
2024-06-20 17:33:32.980,945.80078125,813.4765625,-386.71875,-210.9375,0.0
2024-06-20 17:33:32.984,-978.02734375,-895.99609375,-1000.0,-1000.0,0.0
2024-06-20 17:33:32.988,-407.2265625,-262.20703125,-75.1953125,-172.36328125,0.0
2024-06-20 17:33:32.992,-1000.0,-1000.0,-808.10546875,-812.5,0.0
2024-06-20 17:33:32.996,267.08984375,126.46484375,139.16015625,224.12109375,0.0
2024-06-20 17:33:33.000,-772.4609375,-764.16015625,-1000.0,-1000.0,0.0
2024-06-20 17:33:33.004,146.484375,190.4296875,-256.8359375,-267.08984375,0.0
2024-06-20 17:33:33.007,-1000.0,-1000.0,-816.89453125,-812.98828125,0.0
2024-06-20 17:33:33.011,-244.62890625,-275.390625,273.92578125,308.59375,0.0
2024-06-20 17:33:33.015,-797.8515625,-801.7578125,-1000.0,-1000.0,0.0
2024-06-20 17:33:33.019,223.14453125,371.58203125,-548.828125,-627.9296875,0.0
2024-06-20 17:33:33.023,-1000.0,-1000.0,-961.9140625,979.00390625,0.0
2024-06-20 17:33:33.027,-273.92578125,-336.9140625,671.38671875,780.76171875,0.0
2024-06-20 17:33:33.031,-835.44921875,-857.421875,-859.375,-745.1171875,0.0
2024-06-20 17:33:33.035,614.2578125,690.4296875,-1000.0,-1000.0,0.0
2024-06-20 17:33:33.039,-1000.0,-884.765625,315.91796875,171.38671875,0.0
2024-06-20 17:33:33.043,-711.9140625,-904.296875,-875.9765625,-815.91796875,0.0
2024-06-20 17:33:33.046,841.796875,645.99609375,-240.234375,-102.05078125,0.0
2024-06-20 17:33:33.050,-887.6953125,-871.58203125,-1000.0,-1000.0,0.0
2024-06-20 17:33:33.054,-227.05078125,-232.91015625,-179.6875,-231.4453125,0.0
2024-06-20 17:33:33.058,-1000.0,-1000.0,-821.77734375,-825.68359375,0.0
2024-06-20 17:33:33.062,129.39453125,8.7890625,193.359375,236.81640625,0.0
2024-06-20 17:33:33.066,-763.18359375,-775.87890625,-1000.0,-1000.0,0.0
2024-06-20 17:33:33.070,189.453125,201.171875,-314.94140625,-370.1171875,0.0
2024-06-20 17:33:33.074,-1000.0,-1000.0,-835.44921875,-849.609375,0.0
2024-06-20 17:33:33.078,-273.92578125,-275.87890625,344.7265625,407.2265625,0.0
2024-06-20 17:33:33.082,-803.22265625,-811.5234375,-1000.0,-1000.0,0.0
2024-06-20 17:33:33.086,330.078125,419.921875,-716.796875,-830.078125,0.0
2024-06-20 17:33:33.089,-1000.0,-1000.0,888.671875,758.30078125,0.0
2024-06-20 17:33:33.093,-365.72265625,-503.41796875,770.5078125,886.71875,0.0
2024-06-20 17:33:33.097,-901.85546875,-982.421875,-766.11328125,-643.5546875,0.0
2024-06-20 17:33:33.101,799.31640625,917.48046875,-1000.0,-1000.0,0.0
2024-06-20 17:33:33.105,-785.15625,-609.86328125,161.62109375,45.8984375,0.0
2024-06-20 17:33:33.109,-872.55859375,-1000.0,-825.1953125,-807.12890625,0.0
2024-06-20 17:33:33.113,675.29296875,478.515625,-85.44921875,13.671875,0.0
2024-06-20 17:33:33.117,-831.54296875,-788.0859375,-1000.0,-1000.0,0.0
2024-06-20 17:33:33.121,-69.3359375,134.765625,-216.30859375,-241.69921875,0.0
2024-06-20 17:33:33.125,-1000.0,-1000.0,-820.80078125,-823.2421875,0.0
2024-06-20 17:33:33.129,9.765625,-129.8828125,228.02734375,239.2578125,0.0
2024-06-20 17:33:33.132,-764.6484375,-769.53125,-1000.0,-1000.0,0.0
2024-06-20 17:33:33.136,198.2421875,208.0078125,-392.08984375,-475.5859375,0.0
2024-06-20 17:33:33.140,-1000.0,-1000.0,-863.76953125,-897.4609375,0.0
2024-06-20 17:33:33.144,-277.34375,-276.3671875,414.55078125,501.953125,0.0
2024-06-20 17:33:33.148,-812.5,-823.2421875,-1000.0,-1000.0,0.0
2024-06-20 17:33:33.152,450.1953125,534.1796875,-867.67578125,-983.88671875,0.0
2024-06-20 17:33:33.156,-1000.0,-1000.0,693.84765625,523.4375,0.0
2024-06-20 17:33:33.160,-476.07421875,-599.609375,899.4140625,-982.421875,0.0
2024-06-20 17:33:33.164,-977.05078125,916.9921875,-620.1171875,-470.703125,0.0
2024-06-20 17:33:33.168,949.21875,-907.71484375,-1000.0,-1000.0,0.0
2024-06-20 17:33:33.171,-549.8046875,-275.87890625,39.55078125,-66.40625,0.0
2024-06-20 17:33:33.175,-1000.0,-1000.0,-808.59375,-806.640625,0.0
2024-06-20 17:33:33.179,487.3046875,300.29296875,38.0859375,137.20703125,0.0
2024-06-20 17:33:33.183,-795.8984375,-767.08984375,-1000.0,-1000.0,0.0
2024-06-20 17:33:33.187,47.36328125,172.36328125,-245.1171875,-254.39453125,0.0
2024-06-20 17:33:33.191,-1000.0,-1000.0,-821.77734375,-818.84765625,0.0
2024-06-20 17:33:33.195,-127.9296875,-252.44140625,238.28125,238.76953125,0.0
2024-06-20 17:33:33.199,-778.80859375,-795.41015625,-1000.0,-1000.0,0.0
2024-06-20 17:33:33.203,210.44921875,248.046875,-492.67578125,-569.3359375,0.0
2024-06-20 17:33:33.207,-1000.0,-1000.0,-917.48046875,-961.9140625,0.0
2024-06-20 17:33:33.211,-276.85546875,-275.390625,545.41015625,637.20703125,0.0
2024-06-20 17:33:33.214,-823.73046875,-838.37890625,-995.1171875,-924.8046875,0.0
2024-06-20 17:33:33.218,529.296875,628.41796875,-990.234375,-1000.0,0.0
2024-06-20 17:33:33.222,-1000.0,-970.703125,496.09375,333.0078125,0.0
2024-06-20 17:33:33.226,-632.8125,-801.26953125,-956.54296875,-845.703125,0.0
2024-06-20 17:33:33.230,924.8046875,744.140625,-398.92578125,-207.03125,0.0
2024-06-20 17:33:33.234,-966.796875,-868.1640625,-1000.0,-1000.0,0.0
2024-06-20 17:33:33.238,-383.7890625,-212.890625,-92.28515625,-177.734375,0.0
2024-06-20 17:33:33.242,-1000.0,-1000.0,-812.01171875,-813.96484375,0.0
2024-06-20 17:33:33.246,213.8671875,97.16796875,143.5546875,224.609375,0.0
2024-06-20 17:33:33.250,-769.04296875,-764.16015625,-1000.0,-1000.0,0.0
2024-06-20 17:33:33.254,150.87890625,192.3828125,-257.32421875,-269.53125,0.0
2024-06-20 17:33:33.257,-1000.0,-1000.0,-817.87109375,-813.96484375,0.0
2024-06-20 17:33:33.261,-263.18359375,-272.4609375,286.62109375,360.83984375,0.0
2024-06-20 17:33:33.265,-805.6640625,-806.15234375,-1000.0,-1000.0,0.0
2024-06-20 17:33:33.269,229.4921875,322.75390625,-598.14453125,-641.11328125,0.0
2024-06-20 17:33:33.273,-1000.0,-1000.0,-995.1171875,964.84375,0.0
2024-06-20 17:33:33.277,-330.078125,-438.96484375,670.41015625,829.58984375,0.0
2024-06-20 17:33:33.281,-854.00390625,-904.78515625,-868.65234375,-690.4296875,0.0
2024-06-20 17:33:33.285,615.72265625,709.47265625,-1000.0,-1000.0,0.0
2024-06-20 17:33:33.289,-1000.0,-873.046875,294.921875,180.6640625,0.0
2024-06-20 17:33:33.293,-775.87890625,-956.54296875,-867.1875,-805.6640625,0.0
2024-06-20 17:33:33.296,766.11328125,539.0625,-220.21484375,-58.59375,0.0
2024-06-20 17:33:33.300,-870.60546875,-823.2421875,-1000.0,-1000.0,0.0
2024-06-20 17:33:33.304,-205.56640625,-123.53515625,-180.17578125,-235.83984375,0.0
2024-06-20 17:33:33.308,-1000.0,-1000.0,-819.3359375,-822.75390625,0.0
2024-06-20 17:33:33.312,97.16796875,27.34375,210.44921875,236.328125,0.0
2024-06-20 17:33:33.316,-764.16015625,-766.11328125,-1000.0,-1000.0,0.0
2024-06-20 17:33:33.320,191.89453125,197.75390625,-330.56640625,-367.1875,0.0
2024-06-20 17:33:33.324,-1000.0,-1000.0,-839.35546875,-848.6328125,0.0
2024-06-20 17:33:33.328,-273.92578125,-275.87890625,325.1953125,409.66796875,0.0
2024-06-20 17:33:33.332,-805.17578125,-811.5234375,-1000.0,-1000.0,0.0
2024-06-20 17:33:33.336,337.890625,409.66796875,-754.8828125,-849.12109375,0.0
2024-06-20 17:33:33.339,-1000.0,-1000.0,838.8671875,714.35546875,0.0
2024-06-20 17:33:33.343,-405.2734375,-520.01953125,792.48046875,941.40625,0.0
2024-06-20 17:33:33.347,-920.8984375,995.60546875,-750.48828125,-572.75390625,0.0
2024-06-20 17:33:33.351,815.91796875,954.1015625,-1000.0,-1000.0,0.0
2024-06-20 17:33:33.355,-758.30078125,-545.8984375,150.390625,46.875,0.0
2024-06-20 17:33:33.359,-919.43359375,-1000.0,-822.75390625,-798.33984375,0.0
2024-06-20 17:33:33.363,618.65234375,436.5234375,-73.73046875,54.19921875,0.0
2024-06-20 17:33:33.367,-826.171875,-795.8984375,-1000.0,-1000.0,0.0
2024-06-20 17:33:33.371,-74.70703125,10.7421875,-227.5390625,-246.58203125,0.0
2024-06-20 17:33:33.375,-1000.0,-1000.0,-822.75390625,-820.3125,0.0
2024-06-20 17:33:33.379,-20.5078125,-146.97265625,235.83984375,238.28125,0.0
2024-06-20 17:33:33.382,-769.04296875,-786.62109375,-1000.0,-1000.0,0.0
2024-06-20 17:33:33.386,201.171875,215.33203125,-398.92578125,-467.28515625,0.0
2024-06-20 17:33:33.390,-1000.0,-1000.0,-866.69921875,-895.99609375,0.0
2024-06-20 17:33:33.394,-277.34375,-275.87890625,436.03515625,531.25,0.0
2024-06-20 17:33:33.398,-815.91796875,-830.56640625,-1000.0,-1000.0,0.0
2024-06-20 17:33:33.402,471.6796875,585.44921875,-859.86328125,-971.19140625,0.0
2024-06-20 17:33:33.406,-1000.0,-1000.0,707.03125,541.015625,0.0
2024-06-20 17:33:33.410,-523.92578125,-709.9609375,903.80859375,-961.42578125,0.0
2024-06-20 17:33:33.414,-998.53515625,856.4453125,-604.00390625,-426.7578125,0.0
2024-06-20 17:33:33.418,958.984375,-934.08203125,-1000.0,-1000.0,0.0
2024-06-20 17:33:33.421,-538.57421875,-351.07421875,12.20703125,-81.0546875,0.0
2024-06-20 17:33:33.425,-1000.0,-1000.0,-812.01171875,-805.17578125,0.0
2024-06-20 17:33:33.429,445.3125,208.0078125,43.9453125,161.1328125,0.0
2024-06-20 17:33:33.433,-789.55078125,-767.578125,-1000.0,-1000.0,0.0
2024-06-20 17:33:33.437,59.5703125,163.57421875,-245.1171875,-256.8359375,0.0
2024-06-20 17:33:33.441,-1000.0,-1000.0,-822.265625,-817.87109375,0.0
2024-06-20 17:33:33.445,-131.34765625,-248.53515625,239.2578125,238.28125,0.0
2024-06-20 17:33:33.449,-777.83203125,-798.33984375,-1000.0,-1000.0,0.0
2024-06-20 17:33:33.453,210.9375,260.7421875,-511.71875,-596.6796875,0.0
2024-06-20 17:33:33.457,-1000.0,-1000.0,-925.78125,-974.12109375,0.0
2024-06-20 17:33:33.461,-276.3671875,-320.3125,538.0859375,625.0,0.0
2024-06-20 17:33:33.464,-828.125,-857.91015625,-997.55859375,-933.59375,0.0
2024-06-20 17:33:33.468,569.82421875,664.0625,-1000.0,-1000.0,0.0
2024-06-20 17:33:33.472,-1000.0,-965.33203125,461.42578125,295.41015625,0.0
2024-06-20 17:33:33.476,-614.74609375,-746.09375,-948.2421875,-850.09765625,0.0
2024-06-20 17:33:33.480,926.26953125,809.5703125,-383.30078125,-219.7265625,0.0
2024-06-20 17:33:33.484,-929.6875,-871.09375,-1000.0,-1000.0,0.0
2024-06-20 17:33:33.488,-312.5,-207.51953125,-124.0234375,-205.56640625,0.0
2024-06-20 17:33:33.492,-1000.0,-1000.0,-816.40625,-824.21875,0.0
2024-06-20 17:33:33.496,238.28125,163.0859375,164.0625,231.4453125,0.0
2024-06-20 17:33:33.500,-765.13671875,-760.25390625,-1000.0,-1000.0,0.0
2024-06-20 17:33:33.504,183.10546875,187.5,-271.97265625,-301.26953125,0.0
2024-06-20 17:33:33.507,-1000.0,-1000.0,-821.77734375,-825.68359375,0.0
2024-06-20 17:33:33.511,-257.32421875,-276.3671875,269.53125,301.26953125,0.0
2024-06-20 17:33:33.515,-795.8984375,-806.640625,-1000.0,-1000.0,0.0
2024-06-20 17:33:33.519,268.06640625,393.5546875,-623.046875,-732.421875,0.0
2024-06-20 17:33:33.523,-1000.0,-1000.0,984.86328125,891.6015625,0.0
2024-06-20 17:33:33.527,-274.90234375,-418.45703125,660.64453125,747.0703125,0.0
2024-06-20 17:33:33.531,-854.4921875,-914.55078125,-883.7890625,-810.546875,0.0
2024-06-20 17:33:33.535,713.8671875,818.359375,-1000.0,-1000.0,0.0
2024-06-20 17:33:33.539,-923.33984375,-829.58984375,267.578125,131.34765625,0.0
2024-06-20 17:33:33.543,-679.19921875,-681.15234375,-842.7734375,-814.453125,0.0
2024-06-20 17:33:33.546,887.6953125,886.23046875,-156.73828125,-74.70703125,0.0
2024-06-20 17:33:33.550,-881.8359375,-876.953125,-1000.0,-1000.0,0.0
2024-06-20 17:33:33.554,-161.62109375,-86.42578125,-197.265625,-233.3984375,0.0
2024-06-20 17:33:33.558,-1000.0,-1000.0,-820.3125,-826.171875,0.0
2024-06-20 17:33:33.562,110.83984375,-2.44140625,205.56640625,238.28125,0.0
2024-06-20 17:33:33.566,-760.7421875,-768.06640625,-1000.0,-1000.0,0.0
2024-06-20 17:33:33.570,189.94140625,200.1953125,-328.61328125,-415.0390625,0.0
2024-06-20 17:33:33.574,-1000.0,-1000.0,-839.84375,-867.67578125,0.0
2024-06-20 17:33:33.578,-276.3671875,-278.3203125,364.74609375,416.015625,0.0
2024-06-20 17:33:33.582,-805.6640625,-818.359375,-1000.0,-1000.0,0.0
2024-06-20 17:33:33.586,385.7421875,535.15625,-728.515625,-860.83984375,0.0
2024-06-20 17:33:33.589,-1000.0,-1000.0,863.28125,701.66015625,0.0
2024-06-20 17:33:33.593,-386.71875,-456.0546875,825.68359375,932.6171875,0.0
2024-06-20 17:33:33.597,-913.0859375,-947.265625,-691.89453125,-580.56640625,0.0
2024-06-20 17:33:33.601,836.9140625,922.36328125,-1000.0,-1000.0,0.0
2024-06-20 17:33:33.605,-724.12109375,-558.10546875,125.48828125,10.25390625,0.0
2024-06-20 17:33:33.609,-917.48046875,-1000.0,-822.75390625,-808.59375,0.0
2024-06-20 17:33:33.613,624.51171875,429.6875,-69.3359375,30.2734375,0.0
2024-06-20 17:33:33.617,-822.265625,-788.57421875,-1000.0,-1000.0,0.0
2024-06-20 17:33:33.621,-52.24609375,74.70703125,-229.4921875,-242.67578125,0.0
2024-06-20 17:33:33.625,-1000.0,-1000.0,-823.2421875,-823.73046875,0.0
2024-06-20 17:33:33.629,-20.5078125,-148.92578125,236.328125,240.234375,0.0
2024-06-20 17:33:33.632,-767.578125,-780.76171875,-1000.0,-1000.0,0.0
2024-06-20 17:33:33.636,200.68359375,212.890625,-410.64453125,-509.27734375,0.0
2024-06-20 17:33:33.640,-1000.0,-1000.0,-871.58203125,-914.0625,0.0
2024-06-20 17:33:33.644,-277.34375,-275.87890625,437.5,516.6015625,0.0
2024-06-20 17:33:33.648,-816.40625,-828.125,-1000.0,-1000.0,0.0
2024-06-20 17:33:33.652,479.00390625,577.1484375,-884.27734375,-993.1640625,0.0
2024-06-20 17:33:33.656,-1000.0,-1000.0,657.71484375,486.81640625,0.0
2024-06-20 17:33:33.660,-527.34375,-615.72265625,948.73046875,-935.546875,0.0
2024-06-20 17:33:33.664,998.046875,930.17578125,-542.96875,-387.6953125,0.0
2024-06-20 17:33:33.668,966.30859375,-937.98828125,-1000.0,-1000.0,0.0
2024-06-20 17:33:33.671,-516.6015625,-311.5234375,-4.39453125,-94.7265625,0.0
2024-06-20 17:33:33.675,-1000.0,-1000.0,-810.05859375,-805.6640625,0.0
2024-06-20 17:33:33.679,411.1328125,187.01171875,62.98828125,170.8984375,0.0
2024-06-20 17:33:33.683,-787.59765625,-767.578125,-1000.0,-1000.0,0.0
2024-06-20 17:33:33.687,62.98828125,164.55078125,-247.0703125,-257.8125,0.0
2024-06-20 17:33:33.691,-1000.0,-1000.0,-821.77734375,-817.3828125,0.0
2024-06-20 17:33:33.695,-165.52734375,-267.08984375,238.76953125,238.28125,0.0
2024-06-20 17:33:33.699,-785.64453125,-801.7578125,-1000.0,-1000.0,0.0
2024-06-20 17:33:33.703,215.33203125,264.16015625,-526.3671875,-604.4921875,0.0
2024-06-20 17:33:33.707,-1000.0,-1000.0,-935.05859375,-983.88671875,0.0
2024-06-20 17:33:33.711,-275.87890625,-294.921875,555.6640625,648.4375,0.0
2024-06-20 17:33:33.714,-829.58984375,-859.86328125,-986.328125,-913.0859375,0.0
2024-06-20 17:33:33.718,576.171875,703.125,-1000.0,-1000.0,0.0
2024-06-20 17:33:33.722,-1000.0,-909.66796875,449.70703125,284.1796875,0.0
2024-06-20 17:33:33.726,-642.578125,-785.64453125,-927.734375,-832.03125,0.0
2024-06-20 17:33:33.730,909.66796875,778.3203125,-344.7265625,-170.8984375,0.0
2024-06-20 17:33:33.734,-924.31640625,-865.234375,-1000.0,-1000.0,0.0
2024-06-20 17:33:33.738,-305.17578125,-195.3125,-131.8359375,-211.9140625,0.0
2024-06-20 17:33:33.742,-1000.0,-1000.0,-817.3828125,-822.75390625,0.0
2024-06-20 17:33:33.746,208.49609375,125.48828125,163.0859375,231.4453125,0.0
2024-06-20 17:33:33.750,-764.16015625,-760.7421875,-1000.0,-1000.0,0.0
2024-06-20 17:33:33.754,184.5703125,189.94140625,-278.80859375,-303.7109375,0.0
2024-06-20 17:33:33.757,-1000.0,-1000.0,-824.70703125,-826.171875,0.0
2024-06-20 17:33:33.761,-270.5078125,-275.390625,288.0859375,344.7265625,0.0
2024-06-20 17:33:33.765,-800.78125,-801.26953125,-1000.0,-1000.0,0.0
2024-06-20 17:33:33.769,257.32421875,369.62890625,-648.92578125,-731.93359375,0.0
2024-06-20 17:33:33.773,-1000.0,-1000.0,953.61328125,866.69921875,0.0
2024-06-20 17:33:33.777,-295.8984375,-325.1953125,721.6796875,851.5625,0.0
2024-06-20 17:33:33.781,-858.3984375,-866.69921875,-816.40625,-680.6640625,0.0
2024-06-20 17:33:33.785,689.453125,736.328125,-1000.0,-1000.0,0.0
2024-06-20 17:33:33.789,-919.921875,-809.5703125,231.4453125,130.859375,0.0
2024-06-20 17:33:33.793,-798.33984375,-959.47265625,-859.375,-807.12890625,0.0
2024-06-20 17:33:33.796,758.30078125,550.29296875,-195.80078125,-49.8046875,0.0
2024-06-20 17:33:33.800,-862.3046875,-822.75390625,-1000.0,-1000.0,0.0
2024-06-20 17:33:33.804,-172.36328125,-83.49609375,-198.2421875,-236.328125,0.0
2024-06-20 17:33:33.808,-1000.0,-1000.0,-822.75390625,-824.21875,0.0
2024-06-20 17:33:33.812,70.3125,-57.12890625,214.84375,237.79296875,0.0
2024-06-20 17:33:33.816,-764.6484375,-776.85546875,-1000.0,-1000.0,0.0
2024-06-20 17:33:33.820,193.84765625,206.54296875,-345.21484375,-401.3671875,0.0
2024-06-20 17:33:33.824,-1000.0,-1000.0,-845.703125,-864.74609375,0.0
2024-06-20 17:33:33.828,-275.390625,-276.3671875,368.1640625,469.23828125,0.0
2024-06-20 17:33:33.832,-808.10546875,-815.91796875,-1000.0,-1000.0,0.0
2024-06-20 17:33:33.836,371.58203125,467.28515625,-772.94921875,-868.1640625,0.0
2024-06-20 17:33:33.839,-1000.0,-1000.0,815.91796875,687.01171875,0.0
2024-06-20 17:33:33.843,-447.75390625,-541.50390625,835.44921875,987.79296875,0.0
2024-06-20 17:33:33.847,-941.89453125,981.4453125,-694.82421875,-503.90625,0.0
2024-06-20 17:33:33.851,846.6796875,985.3515625,-1000.0,-1000.0,0.0
2024-06-20 17:33:33.855,-717.28515625,-458.49609375,126.46484375,30.76171875,0.0
2024-06-20 17:33:33.859,-955.078125,-1000.0,-819.3359375,-796.875,0.0
2024-06-20 17:33:33.863,574.21875,305.17578125,-57.12890625,70.3125,0.0
2024-06-20 17:33:33.867,-818.359375,-778.3203125,-1000.0,-1000.0,0.0
2024-06-20 17:33:33.871,-47.36328125,110.3515625,-230.95703125,-248.046875,0.0
2024-06-20 17:33:33.875,-1000.0,-1000.0,-823.73046875,-820.3125,0.0
2024-06-20 17:33:33.879,-73.2421875,-228.02734375,237.3046875,239.2578125,0.0
2024-06-20 17:33:33.882,-776.85546875,-797.36328125,-1000.0,-1000.0,0.0
2024-06-20 17:33:33.886,207.03125,222.65625,-430.17578125,-496.58203125,0.0
2024-06-20 17:33:33.890,-1000.0,-1000.0,-881.34765625,-915.0390625,0.0
2024-06-20 17:33:33.894,-276.3671875,-273.92578125,459.9609375,578.125,0.0
2024-06-20 17:33:33.898,-817.3828125,-826.66015625,-1000.0,-990.234375,0.0
2024-06-20 17:33:33.902,477.5390625,566.40625,-903.3203125,-992.1875,0.0
2024-06-20 17:33:33.906,-1000.0,-1000.0,620.60546875,481.93359375,0.0
2024-06-20 17:33:33.910,-552.24609375,-602.5390625,991.2109375,-879.8828125,0.0
2024-06-20 17:33:33.914,984.375,931.15234375,-480.95703125,-285.64453125,0.0
2024-06-20 17:33:33.918,971.6796875,-932.6171875,-1000.0,-1000.0,0.0
2024-06-20 17:33:33.921,-500.9765625,-271.97265625,-16.6015625,-91.796875,0.0
2024-06-20 17:33:33.925,-1000.0,-1000.0,-810.05859375,-799.31640625,0.0
2024-06-20 17:33:33.929,353.515625,124.51171875,69.82421875,193.359375,0.0
2024-06-20 17:33:33.933,-782.71484375,-766.11328125,-1000.0,-1000.0,0.0
2024-06-20 17:33:33.937,76.171875,177.734375,-247.55859375,-263.18359375,0.0
2024-06-20 17:33:33.941,-1000.0,-1000.0,-821.2890625,-814.94140625,0.0
2024-06-20 17:33:33.945,-202.1484375,-268.5546875,244.62890625,267.08984375,0.0
2024-06-20 17:33:33.949,-794.43359375,-799.8046875,-1000.0,-1000.0,0.0
2024-06-20 17:33:33.953,220.21484375,271.97265625,-533.203125,-598.6328125,0.0
2024-06-20 17:33:33.957,-1000.0,-1000.0,-945.3125,-995.1171875,0.0
2024-06-20 17:33:33.961,-274.90234375,-275.390625,604.00390625,728.02734375,0.0
2024-06-20 17:33:33.964,-830.56640625,-848.6328125,-944.82421875,-831.0546875,0.0
2024-06-20 17:33:33.968,578.61328125,682.12890625,-1000.0,-1000.0,0.0
2024-06-20 17:33:33.972,-1000.0,-903.3203125,426.26953125,289.55078125,0.0
2024-06-20 17:33:33.976,-657.71484375,-851.5625,-916.015625,-825.68359375,0.0
2024-06-20 17:33:33.980,898.92578125,697.75390625,-324.70703125,-146.97265625,0.0
2024-06-20 17:33:33.984,-918.9453125,-858.3984375,-1000.0,-1000.0,0.0
2024-06-20 17:33:33.988,-288.57421875,-187.98828125,-141.6015625,-212.40234375,0.0
2024-06-20 17:33:33.992,-1000.0,-1000.0,-817.87109375,-820.3125,0.0
2024-06-20 17:33:33.996,165.52734375,41.50390625,170.8984375,230.46875,0.0
2024-06-20 17:33:34.000,-763.671875,-769.04296875,-1000.0,-1000.0,0.0
2024-06-20 17:33:34.004,187.01171875,197.265625,-281.25,-293.9453125,0.0
2024-06-20 17:33:34.007,-1000.0,-1000.0,-824.70703125,-822.75390625,0.0
2024-06-20 17:33:34.011,-271.484375,-274.4140625,302.24609375,386.71875,0.0
2024-06-20 17:33:34.015,-803.7109375,-810.546875,-1000.0,-1000.0,0.0
2024-06-20 17:33:34.019,281.73828125,371.58203125,-660.64453125,-733.88671875,0.0
2024-06-20 17:33:34.023,-1000.0,-1000.0,958.984375,876.46484375,0.0
2024-06-20 17:33:34.027,-357.421875,-527.83203125,678.22265625,849.609375,0.0
2024-06-20 17:33:34.031,-880.859375,-961.9140625,-863.28125,-682.12890625,0.0
2024-06-20 17:33:34.035,715.33203125,798.828125,-1000.0,-1000.0,0.0
2024-06-20 17:33:34.039,-904.296875,-793.9453125,222.65625,134.27734375,0.0
2024-06-20 17:33:34.043,-808.59375,-958.984375,-844.23828125,-801.26953125,0.0
2024-06-20 17:33:34.046,747.55859375,547.36328125,-158.69140625,-17.08984375,0.0
2024-06-20 17:33:34.050,-857.91015625,-817.3828125,-1000.0,-1000.0,0.0
2024-06-20 17:33:34.054,-158.203125,-73.2421875,-203.61328125,-239.74609375,0.0
2024-06-20 17:33:34.058,-1000.0,-1000.0,-822.265625,-822.265625,0.0
2024-06-20 17:33:34.062,55.17578125,-23.4375,222.16796875,237.79296875,0.0
2024-06-20 17:33:34.066,-765.625,-769.53125,-1000.0,-1000.0,0.0
2024-06-20 17:33:34.070,194.82421875,202.1484375,-357.421875,-413.57421875,0.0
2024-06-20 17:33:34.074,-1000.0,-1000.0,-849.12109375,-870.60546875,0.0
2024-06-20 17:33:34.078,-275.87890625,-276.85546875,373.046875,489.2578125,0.0
2024-06-20 17:33:34.082,-809.08203125,-816.40625,-1000.0,-1000.0,0.0
2024-06-20 17:33:34.086,389.16015625,468.75,-792.48046875,-875.9765625,0.0
2024-06-20 17:33:34.089,-1000.0,-1000.0,788.57421875,673.828125,0.0
2024-06-20 17:33:34.093,-459.47265625,-566.89453125,854.98046875,-993.1640625,0.0
2024-06-20 17:33:34.097,-947.75390625,980.46875,-668.45703125,-474.609375,0.0
2024-06-20 17:33:34.101,857.421875,956.0546875,-1000.0,-1000.0,0.0
2024-06-20 17:33:34.105,-698.2421875,-511.71875,90.33203125,18.06640625,0.0
2024-06-20 17:33:34.109,-972.65625,-1000.0,-815.4296875,-793.9453125,0.0
2024-06-20 17:33:34.113,549.31640625,288.0859375,-32.2265625,108.3984375,0.0
2024-06-20 17:33:34.117,-813.96484375,-780.76171875,-1000.0,-1000.0,0.0
2024-06-20 17:33:34.121,-36.1328125,80.078125,-237.79296875,-252.9296875,0.0
2024-06-20 17:33:34.125,-1000.0,-1000.0,-824.70703125,-818.359375,0.0
2024-06-20 17:33:34.129,-87.40234375,-224.12109375,238.28125,238.76953125,0.0
2024-06-20 17:33:34.132,-778.80859375,-799.8046875,-1000.0,-1000.0,0.0
2024-06-20 17:33:34.136,208.49609375,223.6328125,-453.61328125,-519.53125,0.0
2024-06-20 17:33:34.140,-1000.0,-1000.0,-892.578125,-928.22265625,0.0
2024-06-20 17:33:34.144,-276.85546875,-270.01953125,478.02734375,595.703125,0.0
2024-06-20 17:33:34.148,-819.3359375,-846.6796875,-1000.0,-986.81640625,0.0
2024-06-20 17:33:34.152,500.48828125,660.15625,-891.11328125,-985.83984375,0.0
2024-06-20 17:33:34.156,-1000.0,-957.03125,644.53125,494.62890625,0.0
2024-06-20 17:33:34.160,-565.4296875,-741.69921875,977.5390625,-880.859375,0.0
2024-06-20 17:33:34.164,977.5390625,840.8203125,-492.1875,-281.73828125,0.0
2024-06-20 17:33:34.168,982.421875,-922.36328125,-1000.0,-1000.0,0.0
2024-06-20 17:33:34.171,-477.05078125,-299.31640625,-41.015625,-101.5625,0.0
2024-06-20 17:33:34.175,-1000.0,-1000.0,-813.4765625,-801.26953125,0.0
2024-06-20 17:33:34.179,318.84765625,79.58984375,81.0546875,196.77734375,0.0
2024-06-20 17:33:34.183,-780.2734375,-772.94921875,-1000.0,-1000.0,0.0
2024-06-20 17:33:34.187,85.44921875,175.78125,-248.53515625,-264.6484375,0.0
2024-06-20 17:33:34.191,-1000.0,-1000.0,-821.2890625,-814.94140625,0.0
2024-06-20 17:33:34.195,-212.890625,-266.6015625,250.0,280.76171875,0.0
2024-06-20 17:33:34.199,-796.38671875,-805.17578125,-1000.0,-1000.0,0.0
2024-06-20 17:33:34.203,221.19140625,271.97265625,-549.8046875,-613.76953125,0.0
2024-06-20 17:33:34.207,-1000.0,-1000.0,-950.68359375,999.0234375,0.0
2024-06-20 17:33:34.211,-274.90234375,-372.55859375,589.84375,725.09765625,0.0
2024-06-20 17:33:34.214,-832.03125,-889.6484375,-958.49609375,-835.9375,0.0
2024-06-20 17:33:34.218,593.75,722.16796875,-1000.0,-1000.0,0.0
2024-06-20 17:33:34.222,-1000.0,-904.296875,407.2265625,272.94921875,0.0
2024-06-20 17:33:34.226,-659.1796875,-799.31640625,-892.578125,-816.40625,0.0
2024-06-20 17:33:34.230,894.53125,754.8828125,-276.3671875,-106.93359375,0.0
2024-06-20 17:33:34.234,-903.3203125,-854.98046875,-1000.0,-1000.0,0.0
2024-06-20 17:33:34.238,-259.765625,-164.0625,-145.99609375,-219.23828125,0.0
2024-06-20 17:33:34.242,-1000.0,-1000.0,-814.453125,-819.82421875,0.0
2024-06-20 17:33:34.246,165.52734375,114.2578125,190.91796875,231.93359375,0.0
2024-06-20 17:33:34.250,-762.20703125,-759.765625,-1000.0,-1000.0,0.0
2024-06-20 17:33:34.254,187.01171875,190.4296875,-290.52734375,-314.94140625,0.0
2024-06-20 17:33:34.257,-1000.0,-1000.0,-825.68359375,-830.078125,0.0
2024-06-20 17:33:34.261,-271.97265625,-275.87890625,298.33984375,386.71875,0.0
2024-06-20 17:33:34.265,-803.7109375,-809.5703125,-1000.0,-1000.0,0.0
2024-06-20 17:33:34.269,291.9921875,386.23046875,-676.7578125,-746.09375,0.0
2024-06-20 17:33:34.273,-1000.0,-1000.0,929.19921875,853.02734375,0.0
2024-06-20 17:33:34.277,-362.3046875,-506.8359375,728.515625,875.48828125,0.0
2024-06-20 17:33:34.281,-883.7890625,-945.80078125,-814.453125,-651.3671875,0.0
2024-06-20 17:33:34.285,725.5859375,787.109375,-1000.0,-1000.0,0.0
2024-06-20 17:33:34.289,-894.04296875,-848.14453125,201.66015625,120.60546875,0.0
2024-06-20 17:33:34.293,-808.10546875,-829.58984375,-827.63671875,-795.41015625,0.0
2024-06-20 17:33:34.296,749.51171875,721.6796875,-98.14453125,22.4609375,0.0
2024-06-20 17:33:34.300,-857.421875,-854.98046875,-1000.0,-1000.0,0.0
2024-06-20 17:33:34.304,-147.4609375,-100.5859375,-215.8203125,-244.62890625,0.0
2024-06-20 17:33:34.308,-1000.0,-1000.0,-820.3125,-819.82421875,0.0
2024-06-20 17:33:34.312,33.203125,-85.9375,221.19140625,237.3046875,0.0
2024-06-20 17:33:34.316,-768.06640625,-783.203125,-1000.0,-1000.0,0.0
2024-06-20 17:33:34.320,197.265625,210.44921875,-355.95703125,-417.48046875,0.0
2024-06-20 17:33:34.324,-1000.0,-1000.0,-849.12109375,-872.55859375,0.0
2024-06-20 17:33:34.328,-275.87890625,-276.3671875,384.27734375,492.1875,0.0
2024-06-20 17:33:34.332,-810.05859375,-820.80078125,-1000.0,-1000.0,0.0
2024-06-20 17:33:34.336,402.34375,511.71875,-788.0859375,-881.34765625,0.0
2024-06-20 17:33:34.339,-1000.0,-1000.0,791.50390625,663.0859375,0.0
2024-06-20 17:33:34.343,-469.7265625,-600.09765625,871.09375,-982.91015625,0.0
2024-06-20 17:33:34.347,-953.61328125,946.2890625,-648.4375,-458.0078125,0.0
2024-06-20 17:33:34.351,869.62890625,-982.91015625,-1000.0,-1000.0,0.0
2024-06-20 17:33:34.355,-673.33984375,-418.45703125,90.8203125,13.671875,0.0
2024-06-20 17:33:34.359,-999.0234375,-1000.0,-811.5234375,-792.96875,0.0
2024-06-20 17:33:34.363,507.32421875,279.78515625,-12.20703125,119.140625,0.0
2024-06-20 17:33:34.367,-805.17578125,-770.01953125,-1000.0,-1000.0,0.0
2024-06-20 17:33:34.371,-5.859375,138.18359375,-238.28125,-254.39453125,0.0
2024-06-20 17:33:34.375,-1000.0,-1000.0,-822.265625,-817.3828125,0.0
2024-06-20 17:33:34.379,-92.7734375,-196.77734375,237.3046875,238.28125,0.0
2024-06-20 17:33:34.382,-776.85546875,-786.62109375,-1000.0,-1000.0,0.0
2024-06-20 17:33:34.386,208.0078125,236.81640625,-438.4765625,-515.625,0.0
2024-06-20 17:33:34.390,-1000.0,-1000.0,-885.7421875,-926.26953125,0.0
2024-06-20 17:33:34.394,-276.85546875,-302.734375,488.76953125,600.09765625,0.0
2024-06-20 17:33:34.398,-820.3125,-836.42578125,-1000.0,-973.6328125,0.0
2024-06-20 17:33:34.402,505.37109375,575.1953125,-938.96484375,-1000.0,0.0
2024-06-20 17:33:34.406,-1000.0,-1000.0,577.63671875,452.63671875,0.0
2024-06-20 17:33:34.410,-582.51953125,-745.60546875,997.0703125,-872.0703125,0.0
2024-06-20 17:33:34.414,964.84375,811.03515625,-474.12109375,-266.11328125,0.0
2024-06-20 17:33:34.418,995.1171875,-911.62109375,-1000.0,-1000.0,0.0
2024-06-20 17:33:34.421,-456.54296875,-288.57421875,-54.6875,-121.58203125,0.0
2024-06-20 17:33:34.425,-1000.0,-1000.0,-812.5,-804.19921875,0.0
2024-06-20 17:33:34.429,289.55078125,77.63671875,104.00390625,209.47265625,0.0
2024-06-20 17:33:34.433,-775.87890625,-770.99609375,-1000.0,-1000.0,0.0
2024-06-20 17:33:34.437,128.41796875,195.3125,-251.46484375,-266.11328125,0.0
2024-06-20 17:33:34.441,-1000.0,-1000.0,-819.82421875,-813.96484375,0.0
2024-06-20 17:33:34.445,-229.00390625,-270.01953125,256.34765625,293.45703125,0.0
2024-06-20 17:33:34.449,-795.8984375,-806.15234375,-1000.0,-1000.0,0.0
2024-06-20 17:33:34.453,221.6796875,284.66796875,-564.94140625,-624.51171875,0.0
2024-06-20 17:33:34.457,-1000.0,-1000.0,-958.49609375,995.60546875,0.0
2024-06-20 17:33:34.461,-274.4140625,-431.15234375,586.9140625,722.65625,0.0
2024-06-20 17:33:34.464,-833.49609375,-908.203125,-950.68359375,-830.078125,0.0
2024-06-20 17:33:34.468,601.07421875,716.30859375,-1000.0,-1000.0,0.0
2024-06-20 17:33:34.472,-1000.0,-898.92578125,351.07421875,233.88671875,0.0
2024-06-20 17:33:34.476,-694.3359375,-871.09375,-889.6484375,-815.4296875,0.0
2024-06-20 17:33:34.480,860.3515625,656.73828125,-271.484375,-103.02734375,0.0
2024-06-20 17:33:34.484,-895.5078125,-840.8203125,-1000.0,-1000.0,0.0
