timestamp,TP9,AF7,AF8,TP10,Right AUX
2024-06-05T16:33:18.399577,0.0,0.0,-0.48828125,-0.48828125,0.0
2024-06-05T16:33:18.403436,0.0,0.0,-0.48828125,-0.48828125,0.0
2024-06-05T16:33:18.407296,-45.8984375,-44.43359375,36.62109375,39.0625,0.0
2024-06-05T16:33:18.411155,124.51171875,118.1640625,-93.75,-101.07421875,0.0
2024-06-05T16:33:18.415015,-438.4765625,-421.875,358.3984375,373.046875,0.0
2024-06-05T16:33:18.418875,-939.94140625,-994.62890625,-905.2734375,-942.87109375,0.0
2024-06-05T16:33:18.422734,564.453125,485.83984375,-173.33984375,-288.57421875,0.0
2024-06-05T16:33:18.426594,-929.19921875,-933.59375,-1000.0,-1000.0,0.0
2024-06-05T16:33:18.430453,-430.17578125,-436.03515625,69.3359375,189.453125,0.0
2024-06-05T16:33:18.434313,-1000.0,-1000.0,-768.5546875,-763.671875,0.0
2024-06-05T16:33:18.438172,-5.859375,-87.890625,195.3125,185.546875,0.0
2024-06-05T16:33:18.442032,-795.8984375,-807.6171875,-1000.0,-1000.0,0.0
2024-06-05T16:33:18.444765,103.515625,154.296875,-272.4609375,-268.06640625,0.0
2024-06-05T16:33:18.448531,-1000.0,-1000.0,-806.640625,-804.19921875,0.0
2024-06-05T16:33:18.452296,-251.46484375,-255.859375,321.2890625,230.46875,0.0
2024-06-05T16:33:18.456062,-821.2890625,-817.3828125,-1000.0,-1000.0,0.0
2024-06-05T16:33:18.459828,239.74609375,238.76953125,-455.56640625,-355.95703125,0.0
2024-06-05T16:33:18.463593,-1000.0,-1000.0,-924.8046875,-869.140625,0.0
2024-06-05T16:33:18.467359,-562.01171875,-562.01171875,759.765625,645.01953125,0.0
2024-06-05T16:33:18.471125,-949.70703125,-948.73046875,-830.56640625,-978.02734375,0.0
2024-06-05T16:33:18.474890,602.5390625,606.93359375,-951.171875,-809.5703125,0.0
2024-06-05T16:33:18.478656,-972.16796875,-951.171875,569.3359375,732.91015625,0.0
2024-06-05T16:33:18.482422,-1000.0,-1000.0,-830.078125,-860.83984375,0.0
2024-06-05T16:33:18.486188,405.76171875,329.58984375,-120.1171875,-187.01171875,0.0
2024-06-05T16:33:18.487105,-849.12109375,-848.14453125,-1000.0,-1000.0,0.0
2024-06-05T16:33:18.490752,-234.375,-226.07421875,-42.96875,75.68359375,0.0
2024-06-05T16:33:18.494399,-1000.0,-1000.0,-776.3671875,-764.16015625,0.0
2024-06-05T16:33:18.498046,-121.09375,-196.77734375,205.078125,193.359375,0.0
2024-06-05T16:33:18.501693,-801.26953125,-820.80078125,-1000.0,-1000.0,0.0
2024-06-05T16:33:18.505340,217.28515625,228.515625,-275.390625,-273.4375,0.0
2024-06-05T16:33:18.508987,-1000.0,-1000.0,-812.98828125,-807.12890625,0.0
2024-06-05T16:33:18.512634,-264.16015625,-266.11328125,421.875,334.47265625,0.0
2024-06-05T16:33:18.516281,-815.4296875,-813.4765625,-1000.0,-1000.0,0.0
2024-06-05T16:33:18.519928,236.81640625,301.26953125,-552.734375,-464.35546875,0.0
2024-06-05T16:33:18.523575,-1000.0,-1000.0,-993.65234375,-931.15234375,0.0
2024-06-05T16:33:18.527222,-644.53125,-664.55078125,886.71875,774.90234375,0.0
2024-06-05T16:33:18.526971,974.12109375,961.42578125,-642.08984375,-813.96484375,0.0
2024-06-05T16:33:18.530509,722.16796875,749.51171875,-1000.0,-950.68359375,0.0
2024-06-05T16:33:18.534048,-834.47265625,-796.875,387.20703125,563.96484375,0.0
2024-06-05T16:33:18.537587,-1000.0,-1000.0,-794.43359375,-820.80078125,0.0
2024-06-05T16:33:18.541126,215.8203125,169.921875,0.9765625,-76.66015625,0.0
2024-06-05T16:33:18.544664,-815.91796875,-815.4296875,-1000.0,-1000.0,0.0
2024-06-05T16:33:18.548203,-120.1171875,-99.609375,-147.94921875,-37.109375,0.0
2024-06-05T16:33:18.551742,-1000.0,-1000.0,-787.109375,-771.484375,0.0
2024-06-05T16:33:18.555281,-229.98046875,-231.4453125,215.33203125,203.61328125,0.0
2024-06-05T16:33:18.558819,-827.63671875,-825.68359375,-1000.0,-1000.0,0.0
2024-06-05T16:33:18.562358,236.81640625,237.3046875,-275.87890625,-276.3671875,0.0
2024-06-05T16:33:18.565897,-1000.0,-1000.0,-822.265625,-813.96484375,0.0
2024-06-05T16:33:18.565749,-367.1875,-369.140625,517.08984375,432.6171875,0.0
2024-06-05T16:33:18.569211,-847.16796875,-847.65625,-1000.0,-1000.0,0.0
2024-06-05T16:33:18.572673,343.26171875,393.5546875,-646.484375,-564.453125,0.0
2024-06-05T16:33:18.576135,-1000.0,-1000.0,929.19921875,998.046875,0.0
2024-06-05T16:33:18.579597,-786.62109375,-834.47265625,-999.0234375,898.92578125,0.0
2024-06-05T16:33:18.583059,801.26953125,741.69921875,-442.87109375,-627.44140625,0.0
2024-06-05T16:33:18.586521,867.67578125,909.66796875,-1000.0,-1000.0,0.0
2024-06-05T16:33:18.589983,-674.31640625,-617.67578125,195.3125,383.7890625,0.0
2024-06-05T16:33:18.593445,-1000.0,-1000.0,-771.97265625,-790.0390625,0.0
2024-06-05T16:33:18.596907,106.4453125,49.8046875,117.1875,36.1328125,0.0
2024-06-05T16:33:18.600369,-801.7578125,-807.6171875,-1000.0,-1000.0,0.0
2024-06-05T16:33:18.603831,-9.765625,-3.41796875,-258.30078125,-160.15625,0.0
2024-06-05T16:33:18.604490,-1000.0,-1000.0,-807.6171875,-786.62109375,0.0
2024-06-05T16:33:18.607905,-240.234375,-239.2578125,229.98046875,215.8203125,0.0
2024-06-05T16:33:18.611320,-825.1953125,-824.21875,-1000.0,-1000.0,0.0
2024-06-05T16:33:18.614735,239.74609375,239.74609375,-321.2890625,-275.87890625,0.0
2024-06-05T16:33:18.618150,-1000.0,-1000.0,-850.09765625,-823.2421875,0.0
2024-06-05T16:33:18.621566,-467.28515625,-463.8671875,614.2578125,525.87890625,0.0
2024-06-05T16:33:18.624981,-890.13671875,-891.6015625,-1000.0,-1000.0,0.0
2024-06-05T16:33:18.628396,445.3125,501.46484375,-778.80859375,-658.203125,0.0
2024-06-05T16:33:18.631811,-1000.0,-1000.0,774.90234375,916.9921875,0.0
2024-06-05T16:33:18.635226,-913.57421875,-938.96484375,-885.25390625,-982.421875,0.0
2024-06-05T16:33:18.638642,612.79296875,584.9609375,-253.41796875,-416.50390625,0.0
2024-06-05T16:33:18.642057,-999.51171875,-975.5859375,-1000.0,-1000.0,0.0
2024-06-05T16:33:18.645718,-495.60546875,-450.1953125,83.984375,191.40625,0.0
2024-06-05T16:33:18.649137,-1000.0,-1000.0,-768.06640625,-768.5546875,0.0
2024-06-05T16:33:18.652556,-5.859375,-61.03515625,193.84765625,153.80859375,0.0
2024-06-05T16:33:18.655974,-797.8515625,-806.640625,-1000.0,-1000.0,0.0
2024-06-05T16:33:18.659393,103.515625,110.3515625,-271.97265625,-263.671875,0.0
2024-06-05T16:33:18.662812,-1000.0,-1000.0,-805.6640625,-805.6640625,0.0
2024-06-05T16:33:18.666230,-251.46484375,-250.48828125,304.6875,229.98046875,0.0
2024-06-05T16:33:18.669649,-820.80078125,-820.3125,-1000.0,-1000.0,0.0
2024-06-05T16:33:18.673068,239.74609375,240.234375,-422.8515625,-333.984375,0.0
2024-06-05T16:33:18.676486,-1000.0,-1000.0,-913.0859375,-854.98046875,0.0
2024-06-05T16:33:18.679905,-562.01171875,-562.01171875,756.34765625,614.74609375,0.0
2024-06-05T16:33:18.683323,-942.87109375,-946.77734375,-835.44921875,-1000.0,0.0
2024-06-05T16:33:18.687490,543.9453125,583.984375,-929.19921875,-800.78125,0.0
2024-06-05T16:33:18.690917,-1000.0,-977.5390625,603.515625,746.58203125,0.0
2024-06-05T16:33:18.694345,-1000.0,-1000.0,-838.37890625,-875.0,0.0
2024-06-05T16:33:18.697773,412.109375,382.8125,-143.06640625,-234.86328125,0.0
2024-06-05T16:33:18.701200,-879.39453125,-860.3515625,-1000.0,-1000.0,0.0
2024-06-05T16:33:18.704628,-292.96875,-248.53515625,-26.85546875,82.51953125,0.0
2024-06-05T16:33:18.708055,-1000.0,-1000.0,-775.390625,-766.6015625,0.0
2024-06-05T16:33:18.711483,-119.62890625,-175.78125,204.1015625,193.84765625,0.0
2024-06-05T16:33:18.714910,-803.7109375,-816.89453125,-1000.0,-1000.0,0.0
2024-06-05T16:33:18.718338,217.28515625,217.28515625,-274.90234375,-273.4375,0.0
2024-06-05T16:33:18.721765,-1000.0,-1000.0,-811.5234375,-806.15234375,0.0
2024-06-05T16:33:18.725193,-264.16015625,-263.18359375,403.3203125,333.0078125,0.0
2024-06-05T16:33:18.729756,-815.4296875,-814.94140625,-1000.0,-1000.0,0.0
2024-06-05T16:33:18.733196,236.81640625,264.16015625,-523.4375,-438.96484375,0.0
2024-06-05T16:33:18.736635,-1000.0,-1000.0,-982.421875,-916.015625,0.0
2024-06-05T16:33:18.740074,-649.90234375,-648.4375,885.25390625,757.32421875,0.0
2024-06-05T16:33:18.743514,994.140625,977.05078125,-647.4609375,-832.03125,0.0
2024-06-05T16:33:18.746953,635.7421875,722.65625,-1000.0,-940.4296875,0.0
2024-06-05T16:33:18.750392,-927.734375,-831.0546875,428.22265625,583.984375,0.0
2024-06-05T16:33:18.753832,-1000.0,-1000.0,-802.734375,-832.03125,0.0
2024-06-05T16:33:18.757271,217.7734375,206.0546875,-30.76171875,-122.0703125,0.0
2024-06-05T16:33:18.760710,-827.63671875,-821.77734375,-1000.0,-1000.0,0.0
2024-06-05T16:33:18.764150,-160.15625,-138.18359375,-139.6484375,-28.80859375,0.0
2024-06-05T16:33:18.767589,-1000.0,-1000.0,-788.0859375,-773.92578125,0.0
2024-06-05T16:33:18.772455,-227.05078125,-228.02734375,215.33203125,203.61328125,0.0
2024-06-05T16:33:18.775908,-825.1953125,-827.1484375,-1000.0,-1000.0,0.0
2024-06-05T16:33:18.779360,231.93359375,236.328125,-275.390625,-276.3671875,0.0
2024-06-05T16:33:18.782813,-1000.0,-1000.0,-820.3125,-812.98828125,0.0
2024-06-05T16:33:18.786265,-279.78515625,-352.05078125,498.046875,432.6171875,0.0
2024-06-05T16:33:18.789718,-817.3828125,-841.796875,-1000.0,-1000.0,0.0
2024-06-05T16:33:18.793170,329.1015625,366.2109375,-619.140625,-541.9921875,0.0
2024-06-05T16:33:18.796623,-1000.0,-1000.0,942.3828125,-986.328125,0.0
2024-06-05T16:33:18.800076,-795.41015625,-791.9921875,998.53515625,884.765625,0.0
2024-06-05T16:33:18.803528,821.2890625,806.15234375,-448.73046875,-642.578125,0.0
2024-06-05T16:33:18.806981,793.45703125,858.88671875,-1000.0,-1000.0,0.0
2024-06-05T16:33:18.810433,-770.5078125,-680.17578125,235.3515625,396.484375,0.0
2024-06-05T16:33:18.815523,-1000.0,-1000.0,-776.85546875,-796.38671875,0.0
2024-06-05T16:33:18.818989,109.375,84.47265625,83.49609375,-7.32421875,0.0
2024-06-05T16:33:18.822456,-811.03515625,-807.12890625,-1000.0,-1000.0,0.0
2024-06-05T16:33:18.825922,-48.828125,-20.99609375,-253.41796875,-142.578125,0.0
2024-06-05T16:33:18.829388,-1000.0,-1000.0,-808.10546875,-786.62109375,0.0
2024-06-05T16:33:18.832854,-236.328125,-238.28125,228.515625,214.84375,0.0
2024-06-05T16:33:18.836320,-823.73046875,-824.70703125,-1000.0,-1000.0,0.0
2024-06-05T16:33:18.839787,236.81640625,239.74609375,-281.73828125,-275.87890625,0.0
2024-06-05T16:33:18.843253,-1000.0,-1000.0,-833.984375,-822.75390625,0.0
2024-06-05T16:33:18.846719,-385.25390625,-453.61328125,586.42578125,525.87890625,0.0
2024-06-05T16:33:18.850185,-854.98046875,-885.7421875,-1000.0,-1000.0,0.0
2024-06-05T16:33:18.853652,430.6640625,470.703125,-732.91015625,-634.765625,0.0
2024-06-05T16:33:18.858903,-1000.0,-1000.0,818.359375,938.4765625,0.0
2024-06-05T16:33:18.862383,-923.828125,-919.921875,-892.08984375,998.53515625,0.0
2024-06-05T16:33:18.865863,633.7890625,617.67578125,-254.39453125,-443.84765625,0.0
2024-06-05T16:33:18.869343,932.6171875,994.62890625,-1000.0,-1000.0,0.0
2024-06-05T16:33:18.872823,-599.12109375,-503.90625,105.46875,206.0546875,0.0
2024-06-05T16:33:18.876302,-1000.0,-1000.0,-766.11328125,-772.94921875,0.0
2024-06-05T16:33:18.879782,-1.46484375,-3.90625,191.89453125,111.328125,0.0
2024-06-05T16:33:18.883262,-806.15234375,-799.31640625,-1000.0,-1000.0,0.0
2024-06-05T16:33:18.886741,61.5234375,89.35546875,-270.01953125,-257.32421875,0.0
2024-06-05T16:33:18.890221,-1000.0,-1000.0,-804.6875,-806.640625,0.0
2024-06-05T16:33:18.893701,-246.58203125,-249.51171875,270.5078125,228.02734375,0.0
2024-06-05T16:33:18.897181,-821.2890625,-820.80078125,-1000.0,-1000.0,0.0
2024-06-05T16:33:18.902546,238.76953125,239.74609375,-383.7890625,-291.015625,0.0
2024-06-05T16:33:18.906039,-1000.0,-1000.0,-892.08984375,-840.33203125,0.0
2024-06-05T16:33:18.909532,-484.375,-545.8984375,716.30859375,610.83984375,0.0
2024-06-05T16:33:18.913025,-901.85546875,-937.01171875,-882.8125,-1000.0,0.0
2024-06-05T16:33:18.916518,528.80859375,567.87109375,-887.20703125,-762.6953125,0.0
2024-06-05T16:33:18.920011,-999.51171875,-991.2109375,647.4609375,793.45703125,0.0
2024-06-05T16:33:18.923503,-1000.0,-1000.0,-844.7265625,-888.671875,0.0
2024-06-05T16:33:18.926996,432.6171875,423.33984375,-143.5546875,-252.44140625,0.0
2024-06-05T16:33:18.930489,-938.4765625,-886.71875,-1000.0,-1000.0,0.0
2024-06-05T16:33:18.933982,-404.296875,-303.22265625,-17.578125,83.984375,0.0
2024-06-05T16:33:18.937475,-1000.0,-1000.0,-774.4140625,-768.06640625,0.0
2024-06-05T16:33:18.940968,-117.1875,-132.32421875,203.125,193.84765625,0.0
2024-06-05T16:33:18.946296,-807.6171875,-807.6171875,-1000.0,-1000.0,0.0
2024-06-05T16:33:18.949801,217.28515625,212.40234375,-273.92578125,-270.99609375,0.0
2024-06-05T16:33:18.953306,-1000.0,-1000.0,-810.05859375,-805.17578125,0.0
2024-06-05T16:33:18.956810,-264.16015625,-265.625,375.0,295.41015625,0.0
2024-06-05T16:33:18.960315,-813.96484375,-813.96484375,-1000.0,-1000.0,0.0
2024-06-05T16:33:18.963820,237.3046875,287.109375,-506.8359375,-404.78515625,0.0
2024-06-05T16:33:18.967324,-1000.0,-1000.0,-969.7265625,-907.2265625,0.0
2024-06-05T16:33:18.970829,-590.8203125,-642.08984375,854.98046875,754.8828125,0.0
2024-06-05T16:33:18.974333,-967.7734375,988.76953125,-688.96484375,-834.47265625,0.0
2024-06-05T16:33:18.977838,624.0234375,706.0546875,-1000.0,-923.828125,0.0
2024-06-05T16:33:18.981343,-921.38671875,-847.16796875,448.2421875,611.328125,0.0
2024-06-05T16:33:18.984847,-1000.0,-1000.0,-804.6875,-839.84375,0.0
2024-06-05T16:33:18.991993,226.5625,220.703125,-32.71484375,-143.06640625,0.0
2024-06-05T16:33:18.995519,-843.75,-824.21875,-1000.0,-1000.0,0.0
2024-06-05T16:33:18.999045,-221.6796875,-153.80859375,-120.1171875,-26.85546875,0.0
2024-06-05T16:33:19.002572,-1000.0,-1000.0,-784.66796875,-775.390625,0.0
2024-06-05T16:33:19.006098,-222.16796875,-227.05078125,212.890625,203.61328125,0.0
2024-06-05T16:33:19.009624,-828.125,-827.1484375,-1000.0,-1000.0,0.0
2024-06-05T16:33:19.013150,231.4453125,235.83984375,-275.390625,-275.390625,0.0
2024-06-05T16:33:19.016677,-1000.0,-1000.0,-817.3828125,-810.546875,0.0
2024-06-05T16:33:19.020203,-268.06640625,-333.49609375,474.609375,410.15625,0.0
2024-06-05T16:33:19.023729,-813.4765625,-835.44921875,-1000.0,-1000.0,0.0
2024-06-05T16:33:19.027256,332.51953125,338.37890625,-580.078125,-493.1640625,0.0
2024-06-05T16:33:19.030782,-1000.0,-1000.0,969.7265625,-965.8203125,0.0
2024-06-05T16:33:19.037605,-714.35546875,-779.296875,972.65625,880.859375,0.0
2024-06-05T16:33:19.041150,910.64453125,828.61328125,-491.2109375,-649.90234375,0.0
2024-06-05T16:33:19.044694,776.3671875,815.91796875,-1000.0,-1000.0,0.0
2024-06-05T16:33:19.048239,-765.625,-737.79296875,290.0390625,454.1015625,0.0
2024-06-05T16:33:19.051784,-1000.0,-1000.0,-780.2734375,-805.17578125,0.0
2024-06-05T16:33:19.055328,117.1875,111.328125,80.56640625,-31.25,0.0
2024-06-05T16:33:19.058873,-822.75390625,-811.03515625,-1000.0,-1000.0,0.0
2024-06-05T16:33:19.062417,-111.81640625,-55.6640625,-233.88671875,-134.765625,0.0
2024-06-05T16:33:19.065962,-1000.0,-1000.0,-802.24609375,-787.109375,0.0
2024-06-05T16:33:19.069507,-229.4921875,-235.3515625,225.09765625,214.35546875,0.0
2024-06-05T16:33:19.073051,-827.1484375,-825.68359375,-1000.0,-1000.0,0.0
2024-06-05T16:33:19.076596,236.81640625,239.2578125,-273.92578125,-275.87890625,0.0
2024-06-05T16:33:19.083233,-1000.0,-1000.0,-828.125,-820.3125,0.0
2024-06-05T16:33:19.086793,-371.09375,-429.19921875,562.98828125,506.8359375,0.0
2024-06-05T16:33:19.090354,-849.609375,-873.53515625,-1000.0,-1000.0,0.0
2024-06-05T16:33:19.093915,435.546875,441.40625,-692.87109375,-600.5859375,0.0
2024-06-05T16:33:19.097475,-1000.0,-1000.0,865.234375,955.56640625,0.0
2024-06-05T16:33:19.101036,-843.26171875,-890.625,-918.45703125,995.60546875,0.0
2024-06-05T16:33:19.104597,739.74609375,662.59765625,-294.921875,-449.70703125,0.0
2024-06-05T16:33:19.108157,916.9921875,957.03125,-1000.0,-1000.0,0.0
2024-06-05T16:33:19.111718,-596.19140625,-553.22265625,130.37109375,252.9296875,0.0
2024-06-05T16:33:19.115279,-1000.0,-1000.0,-766.11328125,-777.83203125,0.0
2024-06-05T16:33:19.118840,5.37109375,-1.953125,190.4296875,83.0078125,0.0
2024-06-05T16:33:19.122400,-813.96484375,-803.22265625,-1000.0,-1000.0,0.0
2024-06-05T16:33:19.128863,0.9765625,69.82421875,-268.06640625,-253.41796875,0.0
2024-06-05T16:33:19.132438,-1000.0,-1000.0,-805.17578125,-807.6171875,0.0
2024-06-05T16:33:19.136013,-238.76953125,-247.0703125,235.83984375,227.5390625,0.0
2024-06-05T16:33:19.139588,-825.1953125,-821.2890625,-1000.0,-1000.0,0.0
2024-06-05T16:33:19.143163,239.74609375,240.234375,-369.140625,-273.4375,0.0
2024-06-05T16:33:19.146738,-1000.0,-1000.0,-881.34765625,-831.54296875,0.0
2024-06-05T16:33:19.150313,-469.23828125,-527.83203125,679.6875,591.796875,0.0
2024-06-05T16:33:19.153888,-895.99609375,-924.31640625,-934.08203125,-1000.0,0.0
2024-06-05T16:33:19.157463,533.69140625,534.66796875,-843.26171875,-714.35546875,0.0
2024-06-05T16:33:19.161038,-1000.0,-1000.0,697.75390625,840.8203125,0.0
2024-06-05T16:33:19.164613,-969.7265625,-1000.0,-855.95703125,-895.99609375,0.0
2024-06-05T16:33:19.168188,541.50390625,458.0078125,-167.96875,-254.39453125,0.0
2024-06-05T16:33:19.174489,-957.03125,-934.08203125,-1000.0,-1000.0,0.0
2024-06-05T16:33:19.178077,-416.015625,-391.6015625,16.11328125,109.375,0.0
2024-06-05T16:33:19.181664,-1000.0,-1000.0,-770.99609375,-766.11328125,0.0
2024-06-05T16:33:19.185252,-108.3984375,-113.76953125,199.70703125,191.89453125,0.0
2024-06-05T16:33:19.188839,-815.4296875,-809.5703125,-1000.0,-1000.0,0.0
2024-06-05T16:33:19.192427,116.2109375,177.734375,-272.94921875,-270.01953125,0.0
2024-06-05T16:33:19.196014,-1000.0,-1000.0,-807.6171875,-804.19921875,0.0
2024-06-05T16:33:19.199602,-249.51171875,-258.30078125,340.33203125,270.5078125,0.0
2024-06-05T16:33:19.203189,-820.80078125,-816.89453125,-1000.0,-1000.0,0.0
2024-06-05T16:33:19.206777,239.74609375,238.28125,-471.6796875,-371.58203125,0.0
2024-06-05T16:33:19.210365,-1000.0,-1000.0,-947.265625,-890.625,0.0
2024-06-05T16:33:19.213952,-562.01171875,-611.81640625,820.80078125,730.46875,0.0
2024-06-05T16:33:19.220104,-951.66015625,-981.4453125,-745.60546875,-872.55859375,0.0
2024-06-05T16:33:19.223703,625.48828125,631.34765625,-984.375,-868.1640625,0.0
2024-06-05T16:33:19.227302,-937.98828125,-930.17578125,523.4375,677.24609375,0.0
2024-06-05T16:33:19.230901,-1000.0,-1000.0,-815.91796875,-848.14453125,0.0
2024-06-05T16:33:19.234499,326.171875,249.51171875,-54.6875,-145.01953125,0.0
2024-06-05T16:33:19.238098,-850.5859375,-830.56640625,-1000.0,-1000.0,0.0
2024-06-05T16:33:19.241697,-224.12109375,-166.9921875,-96.6796875,-1.46484375,0.0
2024-06-05T16:33:19.245296,-1000.0,-1000.0,-781.73828125,-771.97265625,0.0
2024-06-05T16:33:19.248894,-222.16796875,-226.07421875,210.44921875,201.171875,0.0
2024-06-05T16:33:19.252493,-828.125,-825.68359375,-1000.0,-1000.0,0.0
2024-06-05T16:33:19.256092,231.4453125,233.3984375,-275.390625,-273.92578125,0.0
2024-06-05T16:33:19.259691,-1000.0,-1000.0,-814.94140625,-808.59375,0.0
2024-06-05T16:33:19.265704,-267.08984375,-296.875,439.94140625,374.0234375,0.0
2024-06-05T16:33:19.269313,-813.96484375,-823.2421875,-1000.0,-1000.0,0.0
2024-06-05T16:33:19.272922,323.73046875,327.1484375,-570.3125,-474.12109375,0.0
2024-06-05T16:33:19.276531,-1000.0,-1000.0,981.4453125,-955.56640625,0.0
2024-06-05T16:33:19.280140,-655.2734375,-745.60546875,940.91796875,860.3515625,0.0
2024-06-05T16:33:19.283749,970.21484375,860.83984375,-553.22265625,-687.01171875,0.0
2024-06-05T16:33:19.287358,768.06640625,819.82421875,-1000.0,-1000.0,0.0
2024-06-05T16:33:19.290967,-769.53125,-723.6328125,337.40234375,501.953125,0.0
2024-06-05T16:33:19.294575,-1000.0,-1000.0,-786.1328125,-810.05859375,0.0
2024-06-05T16:33:19.298184,162.59765625,119.62890625,58.10546875,-32.71484375,0.0
2024-06-05T16:33:19.301793,-819.82421875,-813.96484375,-1000.0,-1000.0,0.0
2024-06-05T16:33:19.305402,-115.72265625,-72.75390625,-214.84375,-119.62890625,0.0
2024-06-05T16:33:19.311288,-1000.0,-1000.0,-799.31640625,-784.66796875,0.0
2024-06-05T16:33:19.314906,-229.98046875,-233.3984375,223.14453125,212.890625,0.0
2024-06-05T16:33:19.318524,-827.63671875,-824.21875,-1000.0,-1000.0,0.0
2024-06-05T16:33:19.322142,238.76953125,238.76953125,-275.87890625,-277.34375,0.0
2024-06-05T16:33:19.325759,-1000.0,-1000.0,-817.87109375,-810.546875,0.0
2024-06-05T16:33:19.329377,-352.5390625,-353.02734375,519.53125,458.984375,0.0
2024-06-05T16:33:19.332995,-906.25,-904.78515625,-1000.0,-1000.0,0.0
2024-06-05T16:33:19.336613,347.65625,332.03125,-575.1953125,-484.86328125,0.0
2024-06-05T16:33:19.340231,-1000.0,-1000.0,889.6484375,961.42578125,0.0
2024-06-05T16:33:19.343849,-798.828125,-877.9296875,-945.80078125,979.98046875,0.0
2024-06-05T16:33:19.347467,793.45703125,681.640625,-341.30859375,-480.46875,0.0
2024-06-05T16:33:19.351085,911.1328125,940.91796875,-1000.0,-1000.0,0.0
2024-06-05T16:33:19.358144,-599.609375,-576.171875,160.15625,307.12890625,0.0
2024-06-05T16:33:19.361774,-1000.0,-1000.0,-766.6015625,-781.25,0.0
2024-06-05T16:33:19.365405,39.55078125,10.25390625,171.875,80.078125,0.0
2024-06-05T16:33:19.369036,-809.5703125,-805.17578125,-1000.0,-1000.0,0.0
2024-06-05T16:33:19.372667,-2.44140625,48.33984375,-265.625,-233.88671875,0.0
2024-06-05T16:33:19.376298,-1000.0,-1000.0,-805.6640625,-802.24609375,0.0
2024-06-05T16:33:19.379929,-239.2578125,-244.62890625,231.4453125,225.09765625,0.0
2024-06-05T16:33:19.383560,-825.1953125,-821.2890625,-1000.0,-1000.0,0.0
2024-06-05T16:33:19.387191,239.74609375,239.2578125,-362.3046875,-273.92578125,0.0
2024-06-05T16:33:19.390822,-1000.0,-1000.0,-870.1171875,-829.1015625,0.0
2024-06-05T16:33:19.394453,-469.23828125,-482.91015625,642.578125,568.84765625,0.0
2024-06-05T16:33:19.398084,-897.4609375,-900.87890625,-981.93359375,-1000.0,0.0
2024-06-05T16:33:19.404886,538.57421875,523.4375,-809.5703125,-665.0390625,0.0
2024-06-05T16:33:19.408529,-1000.0,-1000.0,734.86328125,892.08984375,0.0
2024-06-05T16:33:19.412171,-926.7578125,-997.55859375,-866.2109375,-916.015625,0.0
2024-06-05T16:33:19.415813,607.91015625,490.72265625,-193.84765625,-281.25,0.0
2024-06-05T16:33:19.419456,-961.9140625,-942.3828125,-1000.0,-1000.0,0.0
2024-06-05T16:33:19.423098,-418.9453125,-402.34375,44.43359375,139.6484375,0.0
2024-06-05T16:33:19.426741,-1000.0,-1000.0,-769.04296875,-764.6484375,0.0
2024-06-05T16:33:19.430383,-80.078125,-103.02734375,197.265625,189.453125,0.0
2024-06-05T16:33:19.434026,-810.05859375,-809.5703125,-1000.0,-1000.0,0.0
2024-06-05T16:33:19.437668,112.79296875,158.203125,-272.94921875,-267.578125,0.0
2024-06-05T16:33:19.441310,-1000.0,-1000.0,-807.12890625,-805.17578125,0.0
2024-06-05T16:33:19.444953,-250.0,-255.859375,334.47265625,231.4453125,0.0
2024-06-05T16:33:19.451523,-820.80078125,-817.87109375,-1000.0,-1000.0,0.0
2024-06-05T16:33:19.455176,239.74609375,238.76953125,-465.8203125,-368.1640625,0.0
2024-06-05T16:33:19.458828,-1000.0,-1000.0,-934.08203125,-883.7890625,0.0
2024-06-05T16:33:19.462481,-562.01171875,-596.6796875,783.69140625,688.96484375,0.0
2024-06-05T16:33:19.466134,-953.61328125,-972.16796875,-802.734375,-934.5703125,0.0
2024-06-05T16:33:19.469786,631.8359375,628.90625,-952.63671875,-816.40625,0.0
2024-06-05T16:33:19.473439,-953.125,-931.15234375,565.4296875,732.421875,0.0
2024-06-05T16:33:19.477091,-1000.0,-1000.0,-824.21875,-858.3984375,0.0
2024-06-05T16:33:19.480744,408.203125,272.94921875,-80.56640625,-160.15625,0.0
2024-06-05T16:33:19.484396,-854.00390625,-841.796875,-1000.0,-1000.0,0.0
2024-06-05T16:33:19.488049,-228.02734375,-208.0078125,-74.21875,23.4375,0.0
2024-06-05T16:33:19.491702,-1000.0,-1000.0,-779.296875,-769.53125,0.0
2024-06-05T16:33:19.498083,-197.75390625,-217.7734375,208.0078125,198.73046875,0.0
2024-06-05T16:33:19.501745,-821.77734375,-825.1953125,-1000.0,-1000.0,0.0
2024-06-05T16:33:19.505406,228.02734375,230.95703125,-275.390625,-272.94921875,0.0
2024-06-05T16:33:19.509068,-1000.0,-1000.0,-813.96484375,-807.6171875,0.0
2024-06-05T16:33:19.512730,-265.13671875,-266.6015625,433.10546875,334.47265625,0.0
2024-06-05T16:33:19.516392,-814.94140625,-812.98828125,-1000.0,-1000.0,0.0
2024-06-05T16:33:19.520053,280.2734375,316.40625,-566.40625,-470.21484375,0.0
2024-06-05T16:33:19.523715,-1000.0,-1000.0,991.69921875,-949.70703125,0.0
2024-06-05T16:33:19.527377,-647.94921875,-716.30859375,915.0390625,828.61328125,0.0
2024-06-05T16:33:19.531038,965.33203125,903.80859375,-604.00390625,-747.55859375,0.0
2024-06-05T16:33:19.534700,773.92578125,780.2734375,-1000.0,-959.47265625,0.0
2024-06-05T16:33:19.538362,-777.34375,-769.53125,383.30078125,561.03515625,0.0
2024-06-05T16:33:19.544576,-1000.0,-1000.0,-791.50390625,-817.87109375,0.0
2024-06-05T16:33:19.548246,218.26171875,138.18359375,35.15625,-46.875,0.0
2024-06-05T16:33:19.551916,-815.91796875,-815.4296875,-1000.0,-1000.0,0.0
2024-06-05T16:33:19.555586,-120.60546875,-87.40234375,-188.96484375,-89.84375,0.0
2024-06-05T16:33:19.559256,-1000.0,-1000.0,-794.43359375,-779.78515625,0.0
2024-06-05T16:33:19.562925,-229.98046875,-232.421875,220.21484375,209.47265625,0.0
2024-06-05T16:33:19.566595,-827.1484375,-825.1953125,-1000.0,-1000.0,0.0
2024-06-05T16:33:19.570265,237.3046875,237.3046875,-274.90234375,-274.90234375,0.0
2024-06-05T16:33:19.573935,-1000.0,-1000.0,-823.73046875,-813.96484375,0.0
2024-06-05T16:33:19.577605,-369.140625,-370.1171875,525.390625,433.10546875,0.0
2024-06-05T16:33:19.581275,-848.6328125,-848.14453125,-1000.0,-1000.0,0.0
2024-06-05T16:33:19.584944,394.04296875,417.96875,-665.0390625,-567.87109375,0.0
2024-06-05T16:33:19.590912,-1000.0,-1000.0,909.66796875,978.02734375,0.0
2024-06-05T16:33:19.594589,-791.015625,-849.609375,-974.12109375,950.1953125,0.0
2024-06-05T16:33:19.598266,791.50390625,725.5859375,-403.3203125,-549.8046875,0.0
2024-06-05T16:33:19.601943,916.9921875,922.36328125,-1000.0,-1000.0,0.0
2024-06-05T16:33:19.605620,-607.91015625,-600.5859375,187.5,371.58203125,0.0
2024-06-05T16:33:19.609297,-1000.0,-1000.0,-769.04296875,-786.62109375,0.0
2024-06-05T16:33:19.612974,107.421875,34.66796875,145.99609375,65.91796875,0.0
2024-06-05T16:33:19.616651,-800.29296875,-807.6171875,-1000.0,-1000.0,0.0
2024-06-05T16:33:19.620328,-9.765625,12.20703125,-262.20703125,-209.47265625,0.0
2024-06-05T16:33:19.624005,-1000.0,-1000.0,-807.12890625,-796.875,0.0
2024-06-05T16:33:19.627682,-240.234375,-240.72265625,230.95703125,221.6796875,0.0
2024-06-05T16:33:19.631359,-825.1953125,-823.2421875,-1000.0,-1000.0,0.0
2024-06-05T16:33:19.637171,239.74609375,239.74609375,-348.14453125,-274.4140625,0.0
2024-06-05T16:33:19.640854,-1000.0,-1000.0,-859.375,-824.21875,0.0
2024-06-05T16:33:19.644538,-468.26171875,-468.75,616.69921875,529.78515625,0.0
2024-06-05T16:33:19.648221,-894.04296875,-894.53125,-1000.0,-1000.0,0.0
2024-06-05T16:33:19.651904,495.1171875,518.5546875,-807.6171875,-660.64453125,0.0
2024-06-05T16:33:19.655588,-1000.0,-1000.0,737.3046875,897.4609375,0.0
2024-06-05T16:33:19.659271,-918.45703125,-967.7734375,-872.0703125,-938.96484375,0.0
2024-06-05T16:33:19.662954,603.02734375,545.41015625,-226.5625,-336.42578125,0.0
2024-06-05T16:33:19.666638,-956.54296875,-966.30859375,-1000.0,-1000.0,0.0
2024-06-05T16:33:19.670321,-426.7578125,-437.01171875,73.2421875,176.7578125,0.0
2024-06-05T16:33:19.674004,-1000.0,-1000.0,-767.578125,-764.6484375,0.0
2024-06-05T16:33:19.677688,-5.859375,-86.9140625,194.3359375,178.7109375,0.0
2024-06-05T16:33:19.683358,-795.8984375,-809.08203125,-1000.0,-1000.0,0.0
2024-06-05T16:33:19.687047,103.515625,138.671875,-272.4609375,-266.6015625,0.0
2024-06-05T16:33:19.690736,-1000.0,-1000.0,-806.640625,-805.17578125,0.0
2024-06-05T16:33:19.694425,-251.46484375,-253.41796875,323.73046875,230.95703125,0.0
2024-06-05T16:33:19.698114,-820.80078125,-818.359375,-1000.0,-1000.0,0.0
2024-06-05T16:33:19.701803,239.74609375,239.2578125,-452.1484375,-362.3046875,0.0
2024-06-05T16:33:19.705492,-1000.0,-1000.0,-922.8515625,-866.2109375,0.0
2024-06-05T16:33:19.709181,-562.01171875,-562.01171875,759.27734375,626.46484375,0.0
2024-06-05T16:33:19.712870,-949.21875,-950.1953125,-830.56640625,-999.51171875,0.0
2024-06-05T16:33:19.716559,598.14453125,615.234375,-950.68359375,-805.6640625,0.0
2024-06-05T16:33:19.720248,-974.609375,-951.171875,567.87109375,732.91015625,0.0
2024-06-05T16:33:19.723937,-1000.0,-1000.0,-828.125,-862.79296875,0.0
2024-06-05T16:33:19.730533,405.2734375,351.07421875,-111.81640625,-189.94140625,0.0
2024-06-05T16:33:19.734230,-848.6328125,-849.609375,-1000.0,-1000.0,0.0
2024-06-05T16:33:19.737927,-234.375,-226.07421875,-39.55078125,65.91796875,0.0
2024-06-05T16:33:19.741625,-1000.0,-1000.0,-774.90234375,-766.11328125,0.0
2024-06-05T16:33:19.745322,-121.09375,-199.21875,204.58984375,194.82421875,0.0
2024-06-05T16:33:19.749019,-801.26953125,-821.2890625,-1000.0,-1000.0,0.0
2024-06-05T16:33:19.752716,217.28515625,229.00390625,-275.87890625,-273.4375,0.0
2024-06-05T16:33:19.756413,-1000.0,-1000.0,-812.98828125,-807.12890625,0.0
2024-06-05T16:33:19.760110,-264.16015625,-265.625,425.29296875,334.47265625,0.0
2024-06-05T16:33:19.763807,-815.4296875,-813.4765625,-1000.0,-1000.0,0.0
2024-06-05T16:33:19.767504,236.81640625,291.50390625,-555.17578125,-468.75,0.0
2024-06-05T16:33:19.771201,-1000.0,-1000.0,-994.140625,-932.12890625,0.0
2024-06-05T16:33:19.777581,-644.04296875,-683.10546875,887.20703125,773.92578125,0.0
2024-06-05T16:33:19.781285,972.16796875,938.4765625,-642.08984375,-816.89453125,0.0
2024-06-05T16:33:19.784989,731.4453125,756.8359375,-1000.0,-950.1953125,0.0
2024-06-05T16:33:19.788694,-825.1953125,-794.43359375,386.71875,563.96484375,0.0
2024-06-05T16:33:19.792398,-1000.0,-1000.0,-794.921875,-821.2890625,0.0
2024-06-05T16:33:19.796102,216.30859375,172.36328125,4.39453125,-74.21875,0.0
2024-06-05T16:33:19.799807,-816.40625,-818.359375,-1000.0,-1000.0,0.0
2024-06-05T16:33:19.803511,-120.60546875,-116.2109375,-156.73828125,-50.29296875,0.0
2024-06-05T16:33:19.807215,-1000.0,-1000.0,-789.0625,-773.92578125,0.0
2024-06-05T16:33:19.810920,-229.98046875,-229.4921875,216.30859375,205.078125,0.0
2024-06-05T16:33:19.814624,-827.63671875,-826.66015625,-1000.0,-1000.0,0.0
2024-06-05T16:33:19.818328,236.81640625,237.3046875,-275.87890625,-275.87890625,0.0
2024-06-05T16:33:19.824509,-1000.0,-1000.0,-823.2421875,-813.96484375,0.0
2024-06-05T16:33:19.828220,-367.1875,-369.140625,525.390625,433.10546875,0.0
2024-06-05T16:33:19.831931,-847.16796875,-848.6328125,-1000.0,-1000.0,0.0
2024-06-05T16:33:19.835642,343.26171875,404.78515625,-650.87890625,-565.91796875,0.0
2024-06-05T16:33:19.839353,-1000.0,-1000.0,928.22265625,993.1640625,0.0
2024-06-05T16:33:19.843063,-785.15625,-794.43359375,-998.53515625,911.1328125,0.0
2024-06-05T16:33:19.846774,796.875,799.31640625,-443.359375,-609.375,0.0
2024-06-05T16:33:19.850485,882.8125,894.04296875,-1000.0,-1000.0,0.0
2024-06-05T16:33:19.854196,-654.296875,-626.953125,194.82421875,383.30078125,0.0
2024-06-05T16:33:19.857906,-1000.0,-1000.0,-771.484375,-789.55078125,0.0
2024-06-05T16:33:19.861617,106.4453125,55.17578125,122.0703125,41.50390625,0.0
2024-06-05T16:33:19.865328,-801.26953125,-807.12890625,-1000.0,-1000.0,0.0
2024-06-05T16:33:19.871328,-9.765625,-3.90625,-258.7890625,-168.9453125,0.0
2024-06-05T16:33:19.875045,-1000.0,-1000.0,-807.6171875,-788.57421875,0.0
2024-06-05T16:33:19.878761,-240.234375,-239.2578125,229.98046875,216.796875,0.0
2024-06-05T16:33:19.882478,-825.1953125,-823.73046875,-1000.0,-1000.0,0.0
2024-06-05T16:33:19.886194,239.74609375,239.74609375,-326.66015625,-275.390625,0.0
2024-06-05T16:33:19.889911,-1000.0,-1000.0,-852.5390625,-823.73046875,0.0
2024-06-05T16:33:19.893628,-467.28515625,-460.9375,614.74609375,525.87890625,0.0
2024-06-05T16:33:19.897344,-890.13671875,-890.13671875,-1000.0,-1000.0,0.0
2024-06-05T16:33:19.901061,445.80078125,502.9296875,-786.62109375,-665.0390625,0.0
2024-06-05T16:33:19.904777,-1000.0,-1000.0,766.6015625,909.1796875,0.0
2024-06-05T16:33:19.908494,-911.62109375,-940.91796875,-883.30078125,-972.16796875,0.0
2024-06-05T16:33:19.912210,607.421875,586.42578125,-253.41796875,-401.3671875,0.0
2024-06-05T16:33:19.918045,-981.4453125,-981.93359375,-1000.0,-1000.0,0.0
2024-06-05T16:33:19.921767,-467.7734375,-459.9609375,83.984375,190.91796875,0.0
2024-06-05T16:33:19.925489,-1000.0,-1000.0,-767.578125,-767.578125,0.0
2024-06-05T16:33:19.929210,-5.859375,-61.03515625,193.84765625,156.73828125,0.0
2024-06-05T16:33:19.932932,-796.875,-806.640625,-1000.0,-1000.0,0.0
2024-06-05T16:33:19.936654,103.515625,110.3515625,-271.97265625,-263.671875,0.0
2024-06-05T16:33:19.940376,-1000.0,-1000.0,-806.15234375,-805.6640625,0.0
2024-06-05T16:33:19.944097,-251.46484375,-250.48828125,308.10546875,230.46875,0.0
2024-06-05T16:33:19.947819,-820.80078125,-820.3125,-1000.0,-1000.0,0.0
2024-06-05T16:33:19.951541,239.74609375,239.74609375,-433.10546875,-344.7265625,0.0
2024-06-05T16:33:19.955263,-1000.0,-1000.0,-917.48046875,-858.3984375,0.0
2024-06-05T16:33:19.958984,-562.01171875,-562.01171875,758.30078125,616.2109375,0.0
2024-06-05T16:33:19.964667,-942.3828125,-948.73046875,-833.49609375,-1000.0,0.0
2024-06-05T16:33:19.968394,543.9453125,599.609375,-935.546875,-807.12890625,0.0
2024-06-05T16:33:19.972120,-1000.0,-967.28515625,595.21484375,736.81640625,0.0
2024-06-05T16:33:19.975847,-1000.0,-1000.0,-836.9140625,-870.60546875,0.0
2024-06-05T16:33:19.979573,406.25,376.46484375,-142.578125,-225.09765625,0.0
2024-06-05T16:33:19.983299,-861.81640625,-850.5859375,-1000.0,-1000.0,0.0
2024-06-05T16:33:19.987026,-261.71875,-228.02734375,-26.85546875,81.54296875,0.0
2024-06-05T16:33:19.990752,-1000.0,-1000.0,-775.390625,-766.11328125,0.0
2024-06-05T16:33:19.994478,-120.1171875,-186.03515625,203.61328125,193.359375,0.0
2024-06-05T16:33:19.998205,-802.734375,-817.87109375,-1000.0,-1000.0,0.0
2024-06-05T16:33:20.001931,217.28515625,227.05078125,-275.390625,-273.4375,0.0
2024-06-05T16:33:20.005658,-1000.0,-1000.0,-812.01171875,-806.15234375,0.0
2024-06-05T16:33:20.011201,-264.16015625,-264.6484375,410.15625,333.984375,0.0
2024-06-05T16:33:20.014932,-815.4296875,-813.96484375,-1000.0,-1000.0,0.0
2024-06-05T16:33:20.018662,236.81640625,271.484375,-535.15625,-451.171875,0.0
2024-06-05T16:33:20.022393,-1000.0,-1000.0,-987.3046875,-920.8984375,0.0
2024-06-05T16:33:20.026124,-649.90234375,-650.390625,886.23046875,758.30078125,0.0
2024-06-05T16:33:20.029854,993.65234375,969.7265625,-645.99609375,-830.078125,0.0
2024-06-05T16:33:20.033585,638.18359375,746.58203125,-1000.0,-950.68359375,0.0
2024-06-05T16:33:20.037316,-926.26953125,-799.8046875,417.48046875,567.3828125,0.0
2024-06-05T16:33:20.041046,-1000.0,-1000.0,-800.78125,-827.1484375,0.0
2024-06-05T16:33:20.044777,212.890625,182.6171875,-27.34375,-110.3515625,0.0
2024-06-05T16:33:20.048507,-818.84765625,-820.3125,-1000.0,-1000.0,0.0
2024-06-05T16:33:20.052238,-127.9296875,-125.48828125,-140.13671875,-30.2734375,0.0
2024-06-05T16:33:20.057653,-1000.0,-1000.0,-788.0859375,-773.4375,0.0
2024-06-05T16:33:20.061388,-229.4921875,-229.00390625,215.33203125,203.125,0.0
2024-06-05T16:33:20.065122,-825.1953125,-826.171875,-1000.0,-1000.0,0.0
2024-06-05T16:33:20.068856,233.88671875,236.328125,-275.87890625,-276.3671875,0.0
2024-06-05T16:33:20.072591,-1000.0,-1000.0,-821.2890625,-813.4765625,0.0
2024-06-05T16:33:20.076325,-315.4296875,-349.609375,507.8125,432.6171875,0.0
2024-06-05T16:33:20.080060,-829.58984375,-841.30859375,-1000.0,-1000.0,0.0
2024-06-05T16:33:20.083794,334.9609375,379.39453125,-634.27734375,-555.17578125,0.0
2024-06-05T16:33:20.087528,-1000.0,-1000.0,935.05859375,-993.1640625,0.0
2024-06-05T16:33:20.091263,-792.96875,-791.9921875,-1000.0,886.71875,0.0
2024-06-05T16:33:20.094997,816.40625,800.29296875,-445.3125,-642.08984375,0.0
2024-06-05T16:33:20.098732,811.5234375,883.30078125,-1000.0,-1000.0,0.0
2024-06-05T16:33:20.104920,-748.046875,-647.4609375,214.35546875,386.23046875,0.0
2024-06-05T16:33:20.108660,-1000.0,-1000.0,-774.90234375,-793.45703125,0.0
2024-06-05T16:33:20.112399,104.98046875,83.0078125,93.26171875,8.7890625,0.0
2024-06-05T16:33:20.116139,-803.22265625,-805.17578125,-1000.0,-1000.0,0.0
2024-06-05T16:33:20.119879,-9.765625,-12.6953125,-254.8828125,-144.53125,0.0
2024-06-05T16:33:20.123619,-1000.0,-1000.0,-808.59375,-785.64453125,0.0
2024-06-05T16:33:20.127358,-240.234375,-239.2578125,229.4921875,214.35546875,0.0
2024-06-05T16:33:20.131098,-823.2421875,-824.21875,-1000.0,-1000.0,0.0
2024-06-05T16:33:20.134838,238.28125,239.74609375,-305.17578125,-275.87890625,0.0
2024-06-05T16:33:20.138578,-1000.0,-1000.0,-842.7734375,-823.2421875,0.0
2024-06-05T16:33:20.142318,-430.6640625,-462.890625,596.6796875,525.87890625,0.0
2024-06-05T16:33:20.146058,-874.51171875,-890.13671875,-1000.0,-1000.0,0.0
2024-06-05T16:33:20.152067,438.96484375,482.91015625,-762.20703125,-651.3671875,0.0
2024-06-05T16:33:20.155812,-1000.0,-1000.0,788.57421875,928.22265625,0.0
2024-06-05T16:33:20.159556,-918.9453125,-918.9453125,-887.20703125,-998.53515625,0.0
2024-06-05T16:33:20.163301,624.51171875,610.3515625,-253.90625,-443.359375,0.0
2024-06-05T16:33:20.167046,962.40234375,-980.46875,-1000.0,-1000.0,0.0
2024-06-05T16:33:20.170790,-553.7109375,-459.47265625,92.7734375,194.3359375,0.0
2024-06-05T16:33:20.174535,-1000.0,-1000.0,-767.08984375,-770.99609375,0.0
2024-06-05T16:33:20.178280,-5.859375,-33.69140625,192.87109375,129.8828125,0.0
2024-06-05T16:33:20.182024,-799.31640625,-803.22265625,-1000.0,-1000.0,0.0
2024-06-05T16:33:20.185769,103.515625,95.703125,-270.99609375,-259.765625,0.0
2024-06-05T16:33:20.189513,-1000.0,-1000.0,-805.6640625,-806.640625,0.0
2024-06-05T16:33:20.193258,-251.46484375,-249.51171875,287.59765625,229.4921875,0.0
2024-06-05T16:33:20.199103,-819.82421875,-820.80078125,-1000.0,-1000.0,0.0
2024-06-05T16:33:20.202852,239.2578125,240.234375,-408.203125,-318.359375,0.0
2024-06-05T16:33:20.206601,-1000.0,-1000.0,-905.2734375,-849.609375,0.0
2024-06-05T16:33:20.210350,-535.15625,-548.828125,738.76953125,613.76953125,0.0
2024-06-05T16:33:20.214099,-928.7109375,-941.89453125,-857.421875,-1000.0,0.0
2024-06-05T16:33:20.217848,538.57421875,596.6796875,-908.69140625,-784.1796875,0.0
2024-06-05T16:33:20.221597,-1000.0,-972.16796875,625.0,769.53125,0.0
2024-06-05T16:33:20.225346,-1000.0,-1000.0,-841.30859375,-884.27734375,0.0
2024-06-05T16:33:20.229095,424.31640625,416.015625,-143.5546875,-253.41796875,0.0
2024-06-05T16:33:20.232844,-913.57421875,-879.39453125,-1000.0,-1000.0,0.0
2024-06-05T16:33:20.236593,-357.91015625,-283.203125,-19.04296875,83.984375,0.0
2024-06-05T16:33:20.240342,-1000.0,-1000.0,-774.4140625,-768.06640625,0.0
2024-06-05T16:33:20.246035,-118.1640625,-165.0390625,203.125,193.84765625,0.0
2024-06-05T16:33:20.249788,-806.15234375,-815.4296875,-1000.0,-1000.0,0.0
2024-06-05T16:33:20.253541,217.28515625,215.8203125,-274.4140625,-272.4609375,0.0
2024-06-05T16:33:20.257294,-1000.0,-1000.0,-810.546875,-805.6640625,0.0
2024-06-05T16:33:20.261047,-264.16015625,-263.18359375,388.18359375,318.84765625,0.0
2024-06-05T16:33:20.264800,-814.94140625,-814.94140625,-1000.0,-1000.0,0.0
2024-06-05T16:33:20.268553,236.81640625,263.671875,-517.08984375,-429.19921875,0.0
2024-06-05T16:33:20.272306,-1000.0,-1000.0,-975.09765625,-914.0625,0.0
2024-06-05T16:33:20.276059,-625.9765625,-643.06640625,863.76953125,756.34765625,0.0
2024-06-05T16:33:20.279812,-990.234375,982.91015625,-674.8046875,-831.54296875,0.0
2024-06-05T16:33:20.283565,631.34765625,712.40234375,-1000.0,-940.4296875,0.0
2024-06-05T16:33:20.287318,-925.78125,-843.26171875,430.6640625,588.8671875,0.0
2024-06-05T16:33:20.292871,-1000.0,-1000.0,-803.7109375,-836.42578125,0.0
2024-06-05T16:33:20.296627,219.23828125,217.7734375,-30.76171875,-143.5546875,0.0
2024-06-05T16:33:20.300384,-829.58984375,-819.3359375,-1000.0,-1000.0,0.0
2024-06-05T16:33:20.304140,-168.9453125,-134.27734375,-139.16015625,-26.85546875,0.0
2024-06-05T16:33:20.307897,-1000.0,-1000.0,-788.0859375,-775.390625,0.0
2024-06-05T16:33:20.311653,-226.07421875,-229.00390625,215.33203125,204.1015625,0.0
2024-06-05T16:33:20.315410,-825.1953125,-826.171875,-1000.0,-1000.0,0.0
2024-06-05T16:33:20.319166,230.95703125,235.83984375,-275.390625,-275.87890625,0.0
2024-06-05T16:33:20.322923,-1000.0,-1000.0,-819.3359375,-812.01171875,0.0
2024-06-05T16:33:20.326679,-268.06640625,-342.28515625,490.234375,420.8984375,0.0
2024-06-05T16:33:20.330436,-812.98828125,-838.37890625,-1000.0,-1000.0,0.0
2024-06-05T16:33:20.334193,328.61328125,360.83984375,-611.328125,-530.2734375,0.0
2024-06-05T16:33:20.339615,-1000.0,-1000.0,949.70703125,-982.421875,0.0
2024-06-05T16:33:20.343375,-779.78515625,-791.015625,986.328125,884.27734375,0.0
2024-06-05T16:33:20.347135,839.35546875,803.7109375,-468.26171875,-644.04296875,0.0
2024-06-05T16:33:20.350894,790.0390625,866.2109375,-1000.0,-1000.0,0.0
2024-06-05T16:33:20.354654,-769.53125,-675.78125,246.58203125,410.64453125,0.0
2024-06-05T16:33:20.358414,-1000.0,-1000.0,-778.3203125,-800.29296875,0.0
2024-06-05T16:33:20.362174,109.86328125,108.88671875,83.49609375,-26.85546875,0.0
2024-06-05T16:33:20.365933,-812.01171875,-804.6875,-1000.0,-1000.0,0.0
2024-06-05T16:33:20.369693,-55.6640625,-28.3203125,-253.41796875,-140.13671875,0.0
2024-06-05T16:33:20.373453,-1000.0,-1000.0,-808.10546875,-788.0859375,0.0
2024-06-05T16:33:20.377213,-235.3515625,-237.79296875,228.515625,214.84375,0.0
2024-06-05T16:33:20.380973,-823.73046875,-824.21875,-1000.0,-1000.0,0.0
2024-06-05T16:33:20.386222,236.328125,239.2578125,-280.2734375,-275.87890625,0.0
2024-06-05T16:33:20.389984,-1000.0,-1000.0,-833.0078125,-822.265625,0.0
2024-06-05T16:33:20.393747,-371.09375,-436.03515625,580.078125,522.94921875,0.0
2024-06-05T16:33:20.397509,-848.6328125,-877.44140625,-1000.0,-1000.0,0.0
2024-06-05T16:33:20.401272,428.7109375,461.42578125,-736.328125,-631.8359375,0.0
2024-06-05T16:33:20.405035,-1000.0,-1000.0,816.89453125,939.453125,0.0
2024-06-05T16:33:20.408797,-918.45703125,-908.203125,-898.4375,998.53515625,0.0
2024-06-05T16:33:20.412560,641.11328125,635.7421875,-269.04296875,-444.82421875,0.0
2024-06-05T16:33:20.416322,931.640625,981.4453125,-1000.0,-1000.0,0.0
2024-06-05T16:33:20.420085,-599.12109375,-519.04296875,106.93359375,215.8203125,0.0
2024-06-05T16:33:20.423847,-1000.0,-1000.0,-766.6015625,-774.90234375,0.0
2024-06-05T16:33:20.427610,-1.46484375,-11.71875,191.89453125,93.75,0.0
2024-06-05T16:33:20.432751,-805.6640625,-802.24609375,-1000.0,-1000.0,0.0
2024-06-05T16:33:20.436516,63.4765625,83.49609375,-269.53125,-254.8828125,0.0
2024-06-05T16:33:20.440281,-1000.0,-1000.0,-804.6875,-807.6171875,0.0
2024-06-05T16:33:20.444046,-246.58203125,-248.53515625,264.6484375,228.02734375,0.0
2024-06-05T16:33:20.447812,-820.3125,-821.2890625,-1000.0,-1000.0,0.0
2024-06-05T16:33:20.451577,238.76953125,240.234375,-379.39453125,-282.71484375,0.0
2024-06-05T16:33:20.455342,-1000.0,-1000.0,-889.6484375,-837.40234375,0.0
2024-06-05T16:33:20.459107,-473.14453125,-549.8046875,710.44921875,609.86328125,0.0
2024-06-05T16:33:20.462872,-895.99609375,-938.96484375,-889.6484375,-1000.0,0.0
2024-06-05T16:33:20.466637,526.3671875,566.40625,-882.8125,-756.34765625,0.0
2024-06-05T16:33:20.470402,-998.53515625,-991.2109375,652.34375,801.26953125,0.0
2024-06-05T16:33:20.474168,-1000.0,-1000.0,-845.21484375,-889.6484375,0.0
2024-06-05T16:33:20.479979,435.05859375,415.0390625,-146.97265625,-253.41796875,0.0
2024-06-05T16:33:20.483747,-944.82421875,-881.34765625,-1000.0,-1000.0,0.0
2024-06-05T16:33:20.487516,-416.015625,-296.38671875,-5.37109375,92.7734375,0.0
2024-06-05T16:33:20.491285,-1000.0,-1000.0,-772.94921875,-767.08984375,0.0
2024-06-05T16:33:20.495054,-114.2578125,-121.09375,201.66015625,193.359375,0.0
2024-06-05T16:33:20.498823,-810.05859375,-803.7109375,-1000.0,-1000.0,0.0
2024-06-05T16:33:20.502592,189.453125,217.7734375,-273.92578125,-271.484375,0.0
2024-06-05T16:33:20.506361,-1000.0,-1000.0,-809.08203125,-804.6875,0.0
2024-06-05T16:33:20.510129,-260.25390625,-264.16015625,370.1171875,300.29296875,0.0
2024-06-05T16:33:20.513898,-815.4296875,-814.453125,-1000.0,-1000.0,0.0
2024-06-05T16:33:20.517667,237.79296875,237.3046875,-487.3046875,-390.13671875,0.0
2024-06-05T16:33:20.521436,-1000.0,-1000.0,-958.0078125,-899.90234375,0.0
2024-06-05T16:33:20.527102,-574.70703125,-636.23046875,845.703125,752.9296875,0.0
2024-06-05T16:33:20.530874,-957.51953125,992.1875,-701.171875,-836.9140625,0.0
2024-06-05T16:33:20.534646,620.1171875,676.26953125,-1000.0,-911.1328125,0.0
2024-06-05T16:33:20.538418,-919.921875,-880.859375,469.7265625,628.41796875,0.0
2024-06-05T16:33:20.542191,-1000.0,-1000.0,-807.12890625,-841.796875,0.0
2024-06-05T16:33:20.545963,226.5625,220.21484375,-32.71484375,-143.06640625,0.0
2024-06-05T16:33:20.549735,-843.75,-826.66015625,-1000.0,-1000.0,0.0
2024-06-05T16:33:20.553507,-221.6796875,-161.1328125,-122.55859375,-24.90234375,0.0
2024-06-05T16:33:20.557279,-1000.0,-1000.0,-784.66796875,-775.390625,0.0
2024-06-05T16:33:20.561052,-222.16796875,-226.5625,213.37890625,203.61328125,0.0
2024-06-05T16:33:20.564824,-828.125,-826.66015625,-1000.0,-1000.0,0.0
2024-06-05T16:33:20.568596,231.4453125,234.86328125,-275.390625,-275.390625,0.0
2024-06-05T16:33:20.574127,-1000.0,-1000.0,-817.3828125,-810.546875,0.0
2024-06-05T16:33:20.577902,-267.578125,-320.3125,473.14453125,406.25,0.0
2024-06-05T16:33:20.581677,-813.4765625,-830.56640625,-1000.0,-1000.0,0.0
2024-06-05T16:33:20.585453,333.49609375,337.890625,-588.37890625,-497.0703125,0.0
2024-06-05T16:33:20.589228,-1000.0,-1000.0,965.8203125,-968.26171875,0.0
2024-06-05T16:33:20.593003,-700.1953125,-767.08984375,970.703125,881.34765625,0.0
2024-06-05T16:33:20.596778,925.78125,837.40234375,-494.62890625,-648.92578125,0.0
2024-06-05T16:33:20.600554,773.4375,827.63671875,-1000.0,-1000.0,0.0
2024-06-05T16:33:20.604329,-764.6484375,-719.23828125,280.2734375,449.70703125,0.0
2024-06-05T16:33:20.608104,-1000.0,-1000.0,-779.78515625,-804.6875,0.0
2024-06-05T16:33:20.611880,117.1875,109.86328125,81.0546875,-30.76171875,0.0
2024-06-05T16:33:20.615655,-823.2421875,-809.08203125,-1000.0,-1000.0,0.0
2024-06-05T16:33:20.621060,-111.81640625,-45.8984375,-236.328125,-136.71875,0.0
2024-06-05T16:33:20.624838,-1000.0,-1000.0,-802.734375,-787.59765625,0.0
2024-06-05T16:33:20.628616,-229.4921875,-236.328125,225.5859375,214.84375,0.0
2024-06-05T16:33:20.632394,-827.63671875,-824.70703125,-1000.0,-1000.0,0.0
2024-06-05T16:33:20.636172,237.3046875,238.76953125,-273.92578125,-275.87890625,0.0
2024-06-05T16:33:20.639950,-1000.0,-1000.0,-828.125,-820.3125,0.0
2024-06-05T16:33:20.643728,-371.09375,-423.33984375,562.5,504.8828125,0.0
2024-06-05T16:33:20.647506,-849.609375,-871.09375,-1000.0,-1000.0,0.0
2024-06-05T16:33:20.651284,435.546875,442.3828125,-697.75390625,-599.12109375,0.0
2024-06-05T16:33:20.655062,-1000.0,-1000.0,860.83984375,956.0546875,0.0
2024-06-05T16:33:20.658840,-844.7265625,-903.3203125,-919.921875,995.1171875,0.0
2024-06-05T16:33:20.662618,738.28125,651.3671875,-297.8515625,-448.2421875,0.0
2024-06-05T16:33:20.667907,917.48046875,949.21875,-1000.0,-1000.0,0.0
2024-06-05T16:33:20.671687,-596.6796875,-568.359375,123.046875,245.1171875,0.0
2024-06-05T16:33:20.675468,-1000.0,-1000.0,-766.6015625,-777.34375,0.0
2024-06-05T16:33:20.679248,4.8828125,-0.9765625,190.91796875,83.49609375,0.0
2024-06-05T16:33:20.683029,-813.96484375,-804.6875,-1000.0,-1000.0,0.0
2024-06-05T16:33:20.686809,3.41796875,60.05859375,-267.578125,-253.41796875,0.0
2024-06-05T16:33:20.690590,-1000.0,-1000.0,-805.17578125,-807.6171875,0.0
2024-06-05T16:33:20.694371,-239.2578125,-246.09375,233.88671875,227.5390625,0.0
2024-06-05T16:33:20.698151,-824.70703125,-822.265625,-1000.0,-1000.0,0.0
2024-06-05T16:33:20.701932,239.74609375,240.234375,-369.140625,-273.4375,0.0
2024-06-05T16:33:20.705712,-1000.0,-1000.0,-881.8359375,-832.03125,0.0
2024-06-05T16:33:20.709493,-469.23828125,-527.34375,680.6640625,591.30859375,0.0
2024-06-05T16:33:20.715381,-895.5078125,-924.31640625,-929.6875,-1000.0,0.0
2024-06-05T16:33:20.719165,532.71484375,540.0390625,-852.5390625,-719.7265625,0.0
2024-06-05T16:33:20.722949,-1000.0,-1000.0,685.546875,834.9609375,0.0
2024-06-05T16:33:20.726733,-977.5390625,-1000.0,-854.00390625,-895.01953125,0.0
2024-06-05T16:33:20.730517,529.78515625,444.82421875,-166.50390625,-253.90625,0.0
2024-06-05T16:33:20.734301,-955.56640625,-896.97265625,-1000.0,-1000.0,0.0
2024-06-05T16:33:20.738085,-416.015625,-321.2890625,13.18359375,107.421875,0.0
2024-06-05T16:33:20.741869,-1000.0,-1000.0,-771.484375,-766.11328125,0.0
2024-06-05T16:33:20.745653,-109.86328125,-116.69921875,200.1953125,191.89453125,0.0
2024-06-05T16:33:20.749437,-813.96484375,-805.6640625,-1000.0,-1000.0,0.0
2024-06-05T16:33:20.753221,136.71875,193.84765625,-272.94921875,-270.01953125,0.0
2024-06-05T16:33:20.757005,-1000.0,-1000.0,-807.6171875,-804.19921875,0.0
2024-06-05T16:33:20.762049,-252.44140625,-260.7421875,342.28515625,269.53125,0.0
2024-06-05T16:33:20.765835,-819.3359375,-815.91796875,-1000.0,-1000.0,0.0
2024-06-05T16:33:20.769621,239.2578125,237.79296875,-472.16796875,-371.58203125,0.0
2024-06-05T16:33:20.773407,-1000.0,-1000.0,-946.77734375,-889.6484375,0.0
2024-06-05T16:33:20.777193,-562.01171875,-626.46484375,818.84765625,726.07421875,0.0
2024-06-05T16:33:20.780979,-951.171875,-998.53515625,-743.65234375,-874.51171875,0.0
2024-06-05T16:33:20.784765,623.046875,664.0625,-994.140625,-875.0,0.0
2024-06-05T16:33:20.788551,-932.12890625,-891.11328125,508.7890625,666.50390625,0.0
2024-06-05T16:33:20.792337,-1000.0,-1000.0,-814.453125,-847.16796875,0.0
2024-06-05T16:33:20.796123,295.41015625,221.19140625,-53.7109375,-144.53125,0.0
2024-06-05T16:33:20.799909,-848.6328125,-830.078125,-1000.0,-1000.0,0.0
2024-06-05T16:33:20.803695,-223.14453125,-173.828125,-105.46875,-7.8125,0.0
2024-06-05T16:33:20.808645,-1000.0,-1000.0,-783.203125,-772.94921875,0.0
2024-06-05T16:33:20.812433,-221.6796875,-225.5859375,211.42578125,201.66015625,0.0
2024-06-05T16:33:20.816221,-828.125,-825.68359375,-1000.0,-1000.0,0.0
2024-06-05T16:33:20.820009,231.4453125,232.91015625,-274.90234375,-274.4140625,0.0
2024-06-05T16:33:20.823797,-1000.0,-1000.0,-814.94140625,-809.08203125,0.0
2024-06-05T16:33:20.827585,-267.578125,-284.66796875,446.2890625,377.9296875,0.0
2024-06-05T16:33:20.831372,-813.4765625,-818.84765625,-1000.0,-1000.0,0.0
2024-06-05T16:33:20.835160,336.42578125,326.66015625,-570.80078125,-474.12109375,0.0
2024-06-05T16:33:20.838948,-1000.0,-1000.0,980.46875,-956.0546875,0.0
2024-06-05T16:33:20.842736,-657.2265625,-745.1171875,945.3125,861.81640625,0.0
2024-06-05T16:33:20.846524,971.6796875,866.2109375,-539.0625,-679.19921875,0.0
2024-06-05T16:33:20.850312,767.08984375,806.640625,-1000.0,-1000.0,0.0
2024-06-05T16:33:20.855852,-767.08984375,-740.72265625,314.94140625,482.91015625,0.0
2024-06-05T16:33:20.859642,-1000.0,-1000.0,-784.66796875,-808.10546875,0.0
2024-06-05T16:33:20.863433,147.4609375,120.1171875,63.4765625,-32.2265625,0.0
2024-06-05T16:33:20.867223,-820.80078125,-811.5234375,-1000.0,-1000.0,0.0
2024-06-05T16:33:20.871014,-114.74609375,-61.5234375,-221.6796875,-124.0234375,0.0
2024-06-05T16:33:20.874804,-1000.0,-1000.0,-800.78125,-785.15625,0.0
2024-06-05T16:33:20.878595,-229.4921875,-234.86328125,223.6328125,213.37890625,0.0
2024-06-05T16:33:20.882385,-827.63671875,-824.21875,-1000.0,-1000.0,0.0
2024-06-05T16:33:20.886176,237.3046875,237.79296875,-274.4140625,-275.390625,0.0
2024-06-05T16:33:20.889967,-1000.0,-1000.0,-825.68359375,-817.3828125,0.0
2024-06-05T16:33:20.893757,-371.09375,-393.06640625,543.9453125,479.98046875,0.0
2024-06-05T16:33:20.897548,-850.09765625,-858.3984375,-1000.0,-1000.0,0.0
2024-06-05T16:33:20.902966,439.453125,436.03515625,-664.0625,-572.75390625,0.0
2024-06-05T16:33:20.906759,-1000.0,-1000.0,899.4140625,972.16796875,0.0
2024-06-05T16:33:20.910552,-799.31640625,-885.25390625,-942.3828125,979.98046875,0.0
2024-06-05T16:33:20.914345,796.875,679.6875,-333.0078125,-476.07421875,0.0
2024-06-05T16:33:20.918138,910.15625,935.546875,-1000.0,-1000.0,0.0
2024-06-05T16:33:20.921931,-597.65625,-584.9609375,146.484375,285.64453125,0.0
2024-06-05T16:33:20.925724,-1000.0,-1000.0,-767.08984375,-779.78515625,0.0
2024-06-05T16:33:20.929517,25.87890625,7.8125,177.24609375,81.54296875,0.0
2024-06-05T16:33:20.933310,-811.03515625,-806.15234375,-1000.0,-1000.0,0.0
2024-06-05T16:33:20.937103,-0.9765625,45.41015625,-266.11328125,-242.1875,0.0
2024-06-05T16:33:20.940896,-1000.0,-1000.0,-805.6640625,-804.6875,0.0
2024-06-05T16:33:20.944689,-239.2578125,-244.62890625,231.4453125,226.07421875,0.0
2024-06-05T16:33:20.949992,-824.70703125,-822.75390625,-1000.0,-1000.0,0.0
2024-06-05T16:33:20.953787,239.74609375,239.74609375,-367.1875,-273.92578125,0.0
2024-06-05T16:33:20.957582,-1000.0,-1000.0,-874.51171875,-829.58984375,0.0
2024-06-05T16:33:20.961378,-469.23828125,-510.25390625,652.34375,573.73046875,0.0
2024-06-05T16:33:20.965173,-897.4609375,-916.015625,-972.65625,-1000.0,0.0
2024-06-05T16:33:20.968968,538.0859375,537.109375,-811.5234375,-666.50390625,0.0
2024-06-05T16:33:20.972764,-1000.0,-1000.0,733.88671875,890.625,0.0
2024-06-05T16:33:20.976559,-926.7578125,-1000.0,-865.234375,-912.59765625,0.0
2024-06-05T16:33:20.980354,607.91015625,470.21484375,-186.03515625,-272.4609375,0.0
2024-06-05T16:33:20.984149,-963.37890625,-928.22265625,-1000.0,-1000.0,0.0
2024-06-05T16:33:20.987945,-416.015625,-375.9765625,30.2734375,127.44140625,0.0
2024-06-05T16:33:20.991740,-1000.0,-1000.0,-763.18359375,-758.30078125,0.0
2024-06-05T16:33:20.996936,-75.68359375,-93.26171875,179.6875,171.875,0.0
2024-06-05T16:33:21.000733,-868.65234375,-864.74609375,-1000.0,-1000.0,0.0
2024-06-05T16:33:21.004530,26.3671875,87.40234375,-185.05859375,-179.6875,0.0
2024-06-05T16:33:21.008328,-1000.0,-1000.0,-818.359375,-815.91796875,0.0
2024-06-05T16:33:21.012125,-250.0,-257.8125,334.9609375,236.81640625,0.0
2024-06-05T16:33:21.015922,-823.2421875,-819.3359375,-1000.0,-1000.0,0.0
2024-06-05T16:33:21.019720,239.74609375,238.28125,-473.14453125,-368.1640625,0.0
2024-06-05T16:33:21.023517,-1000.0,-1000.0,-940.91796875,-886.23046875,0.0
2024-06-05T16:33:21.027314,-562.01171875,-608.88671875,795.8984375,702.63671875,0.0
2024-06-05T16:33:21.031111,-953.61328125,-979.4921875,-786.62109375,-916.50390625,0.0
2024-06-05T16:33:21.034909,631.8359375,630.37109375,-961.42578125,-828.125,0.0
2024-06-05T16:33:21.038706,-953.125,-928.7109375,553.7109375,719.7265625,0.0
2024-06-05T16:33:21.043801,-1000.0,-1000.0,-822.265625,-854.4921875,0.0
2024-06-05T16:33:21.047600,408.69140625,249.51171875,-72.75390625,-149.90234375,0.0
2024-06-05T16:33:21.051399,-855.46875,-836.9140625,-1000.0,-1000.0,0.0
2024-06-05T16:33:21.055199,-226.07421875,-192.3828125,-83.0078125,15.13671875,0.0
2024-06-05T16:33:21.058998,-1000.0,-1000.0,-780.2734375,-770.01953125,0.0
2024-06-05T16:33:21.062797,-222.16796875,-224.12109375,208.984375,199.70703125,0.0
2024-06-05T16:33:21.066596,-828.125,-826.171875,-1000.0,-1000.0,0.0
2024-06-05T16:33:21.070395,231.4453125,231.93359375,-275.390625,-272.94921875,0.0
2024-06-05T16:33:21.074195,-1000.0,-1000.0,-813.96484375,-807.6171875,0.0
2024-06-05T16:33:21.077994,-265.625,-270.01953125,433.10546875,344.7265625,0.0
2024-06-05T16:33:21.081793,-814.453125,-814.453125,-1000.0,-1000.0,0.0
2024-06-05T16:33:21.085592,304.19921875,315.4296875,-570.80078125,-470.703125,0.0
2024-06-05T16:33:21.090593,-1000.0,-1000.0,986.328125,-951.66015625,0.0
2024-06-05T16:33:21.094393,-651.85546875,-722.16796875,923.828125,838.37890625,0.0
2024-06-05T16:33:21.098194,967.7734375,898.92578125,-584.9609375,-724.609375,0.0
2024-06-05T16:33:21.101995,772.94921875,774.90234375,-1000.0,-981.4453125,0.0
2024-06-05T16:33:21.105796,-777.34375,-778.3203125,356.93359375,529.296875,0.0
2024-06-05T16:33:21.109597,-1000.0,-1000.0,-789.0625,-812.98828125,0.0
2024-06-05T16:33:21.113398,218.26171875,143.06640625,44.43359375,-34.66796875,0.0
2024-06-05T16:33:21.117199,-815.4296875,-813.4765625,-1000.0,-1000.0,0.0
2024-06-05T16:33:21.121000,-120.60546875,-79.58984375,-201.66015625,-103.515625,0.0
2024-06-05T16:33:21.124800,-1000.0,-1000.0,-797.36328125,-781.25,0.0
2024-06-05T16:33:21.128601,-229.98046875,-232.91015625,221.19140625,210.44921875,0.0
2024-06-05T16:33:21.132402,-827.1484375,-824.21875,-1000.0,-1000.0,0.0
2024-06-05T16:33:21.137314,237.3046875,237.3046875,-274.90234375,-275.390625,0.0
2024-06-05T16:33:21.141116,-1000.0,-1000.0,-823.2421875,-815.4296875,0.0
2024-06-05T16:33:21.144918,-370.1171875,-373.046875,525.87890625,449.21875,0.0
2024-06-05T16:33:21.148721,-849.609375,-849.609375,-1000.0,-1000.0,0.0
2024-06-05T16:33:21.152523,414.55078125,423.33984375,-663.0859375,-569.3359375,0.0
2024-06-05T16:33:21.156326,-1000.0,-1000.0,905.2734375,975.09765625,0.0
2024-06-05T16:33:21.160128,-794.921875,-849.609375,-961.42578125,962.890625,0.0
2024-06-05T16:33:21.163930,793.45703125,733.88671875,-375.9765625,-519.04296875,0.0
2024-06-05T16:33:21.167733,915.0390625,903.80859375,-1000.0,-1000.0,0.0
2024-06-05T16:33:21.171535,-605.46875,-619.62890625,171.875,335.44921875,0.0
2024-06-05T16:33:21.175338,-1000.0,-1000.0,-768.06640625,-783.203125,0.0
2024-06-05T16:33:21.179140,88.8671875,14.6484375,157.2265625,78.61328125,0.0
2024-06-05T16:33:21.183968,-802.734375,-808.10546875,-1000.0,-1000.0,0.0
2024-06-05T16:33:21.187772,-7.8125,29.296875,-263.671875,-222.16796875,0.0
2024-06-05T16:33:21.191576,-1000.0,-1000.0,-806.640625,-799.31640625,0.0
2024-06-05T16:33:21.195379,-239.74609375,-242.67578125,230.95703125,223.14453125,0.0
2024-06-05T16:33:21.199183,-824.70703125,-822.75390625,-1000.0,-1000.0,0.0
2024-06-05T16:33:21.202987,239.74609375,239.74609375,-355.95703125,-274.4140625,0.0
2024-06-05T16:33:21.206791,-1000.0,-1000.0,-862.3046875,-825.68359375,0.0
2024-06-05T16:33:21.210595,-469.23828125,-485.83984375,618.1640625,545.41015625,0.0
2024-06-05T16:33:21.214398,-895.99609375,-903.3203125,-1000.0,-1000.0,0.0
2024-06-05T16:33:21.218202,521.484375,529.296875,-806.15234375,-662.109375,0.0
2024-06-05T16:33:21.222006,-1000.0,-1000.0,735.83984375,894.53125,0.0
2024-06-05T16:33:21.225810,-923.828125,-972.16796875,-869.140625,-927.734375,0.0
2024-06-05T16:33:21.231164,605.46875,535.15625,-210.44921875,-309.5703125,0.0
2024-06-05T16:33:21.234970,-958.984375,-954.1015625,-1000.0,-1000.0,0.0
2024-06-05T16:33:21.238776,-423.828125,-417.96875,58.10546875,159.66796875,0.0
2024-06-05T16:33:21.242582,-1000.0,-1000.0,-768.5546875,-764.6484375,0.0
2024-06-05T16:33:21.246388,-32.71484375,-96.6796875,195.80078125,187.5,0.0
2024-06-05T16:33:21.250194,-800.78125,-807.12890625,-1000.0,-1000.0,0.0
2024-06-05T16:33:21.253999,106.93359375,175.78125,-273.4375,-267.578125,0.0
2024-06-05T16:33:21.257805,-1000.0,-1000.0,-807.12890625,-805.17578125,0.0
2024-06-05T16:33:21.261611,-250.9765625,-258.30078125,333.984375,231.4453125,0.0
2024-06-05T16:33:21.265417,-820.80078125,-816.40625,-1000.0,-1000.0,0.0
2024-06-05T16:33:21.269223,239.74609375,238.28125,-463.37890625,-370.60546875,0.0
2024-06-05T16:33:21.273029,-1000.0,-1000.0,-926.26953125,-875.9765625,0.0
2024-06-05T16:33:21.278277,-562.01171875,-588.8671875,760.7421875,655.2734375,0.0
2024-06-05T16:33:21.282085,-952.63671875,-967.28515625,-831.54296875,-971.19140625,0.0
2024-06-05T16:33:21.285893,626.46484375,622.0703125,-949.70703125,-810.546875,0.0
2024-06-05T16:33:21.289701,-956.54296875,-939.453125,566.40625,732.421875,0.0
2024-06-05T16:33:21.293509,-1000.0,-1000.0,-827.1484375,-860.83984375,0.0
2024-06-05T16:33:21.297316,407.71484375,296.38671875,-95.21484375,-175.29296875,0.0
2024-06-05T16:33:21.301124,-852.05078125,-843.26171875,-1000.0,-1000.0,0.0
2024-06-05T16:33:21.304932,-230.95703125,-211.42578125,-63.96484375,42.48046875,0.0
2024-06-05T16:33:21.308740,-1000.0,-1000.0,-778.3203125,-768.06640625,0.0
2024-06-05T16:33:21.312548,-161.1328125,-208.49609375,207.51953125,197.265625,0.0
2024-06-05T16:33:21.316355,-812.01171875,-823.2421875,-1000.0,-1000.0,0.0
2024-06-05T16:33:21.320163,222.65625,229.98046875,-275.390625,-272.94921875,0.0
2024-06-05T16:33:21.325311,-1000.0,-1000.0,-813.96484375,-807.6171875,0.0
2024-06-05T16:33:21.329121,-267.08984375,-267.08984375,433.10546875,334.9609375,0.0
2024-06-05T16:33:21.332931,-814.453125,-812.98828125,-1000.0,-1000.0,0.0
2024-06-05T16:33:21.336740,299.31640625,321.77734375,-574.21875,-473.6328125,0.0
2024-06-05T16:33:21.340550,-1000.0,-1000.0,994.62890625,-939.453125,0.0
2024-06-05T16:33:21.344359,-651.3671875,-668.45703125,895.99609375,790.52734375,0.0
2024-06-05T16:33:21.348169,966.796875,956.0546875,-629.39453125,-796.875,0.0
2024-06-05T16:33:21.351978,773.4375,771.484375,-1000.0,-953.125,0.0
2024-06-05T16:33:21.355788,-777.34375,-769.53125,364.74609375,562.98828125,0.0
2024-06-05T16:33:21.359597,-1000.0,-1000.0,-792.96875,-822.75390625,0.0
2024-06-05T16:33:21.363407,218.26171875,151.3671875,25.87890625,-65.4296875,0.0
2024-06-05T16:33:21.367217,-815.91796875,-812.98828125,-1000.0,-1000.0,0.0
2024-06-05T16:33:21.372271,-120.60546875,-79.1015625,-195.80078125,-88.37890625,0.0
2024-06-05T16:33:21.376082,-1000.0,-1000.0,-797.36328125,-780.76171875,0.0
2024-06-05T16:33:21.379893,-230.46875,-233.3984375,221.19140625,209.47265625,0.0
2024-06-05T16:33:21.383704,-827.63671875,-824.21875,-1000.0,-1000.0,0.0
2024-06-05T16:33:21.387515,237.3046875,236.81640625,-274.90234375,-274.90234375,0.0
2024-06-05T16:33:21.391326,-1000.0,-1000.0,-823.73046875,-814.453125,0.0
2024-06-05T16:33:21.395138,-369.62890625,-370.60546875,525.87890625,433.10546875,0.0
2024-06-05T16:33:21.398949,-849.12109375,-848.6328125,-1000.0,-1000.0,0.0
2024-06-05T16:33:21.402760,402.34375,422.36328125,-661.1328125,-571.77734375,0.0
2024-06-05T16:33:21.406571,-1000.0,-1000.0,908.203125,988.28125,0.0
2024-06-05T16:33:21.410382,-792.48046875,-844.23828125,-966.30859375,916.50390625,0.0
2024-06-05T16:33:21.414193,791.9921875,739.2578125,-389.16015625,-597.16796875,0.0
2024-06-05T16:33:21.419158,916.9921875,906.73828125,-1000.0,-1000.0,0.0
2024-06-05T16:33:21.422971,-607.91015625,-618.65234375,190.91796875,359.375,0.0
2024-06-05T16:33:21.426783,-1000.0,-1000.0,-767.08984375,-790.0390625,0.0
2024-06-05T16:33:21.430596,107.421875,34.1796875,156.73828125,49.31640625,0.0
2024-06-05T16:33:21.434409,-800.29296875,-808.59375,-1000.0,-1000.0,0.0
2024-06-05T16:33:21.438221,-9.765625,5.859375,-263.671875,-210.9375,0.0
2024-06-05T16:33:21.442034,-1000.0,-1000.0,-805.6640625,-799.31640625,0.0
2024-06-05T16:33:21.445846,-240.234375,-240.234375,229.98046875,222.65625,0.0
2024-06-05T16:33:21.449659,-825.1953125,-824.70703125,-1000.0,-1000.0,0.0
2024-06-05T16:33:21.453472,239.74609375,240.234375,-335.9375,-274.4140625,0.0
2024-06-05T16:33:21.457284,-1000.0,-1000.0,-855.46875,-823.73046875,0.0
2024-06-05T16:33:21.461097,-468.26171875,-487.79296875,615.234375,525.87890625,0.0
2024-06-05T16:33:21.465978,-893.5546875,-902.83203125,-1000.0,-1000.0,0.0
2024-06-05T16:33:21.469792,494.140625,509.765625,-797.36328125,-660.15625,0.0
2024-06-05T16:33:21.473606,-1000.0,-1000.0,751.46484375,897.4609375,0.0
2024-06-05T16:33:21.477420,-917.96875,-972.65625,-877.44140625,-938.96484375,0.0
2024-06-05T16:33:21.481233,603.02734375,530.76171875,-239.2578125,-339.84375,0.0
2024-06-05T16:33:21.485047,-956.0546875,-961.9140625,-1000.0,-1000.0,0.0
2024-06-05T16:33:21.488861,-426.7578125,-433.10546875,77.63671875,187.01171875,0.0
2024-06-05T16:33:21.492675,-1000.0,-1000.0,-767.578125,-763.18359375,0.0
2024-06-05T16:33:21.496489,-5.859375,-82.03125,194.3359375,185.546875,0.0
2024-06-05T16:33:21.500303,-795.8984375,-810.05859375,-1000.0,-1000.0,0.0
2024-06-05T16:33:21.504117,103.515625,113.28125,-272.4609375,-268.06640625,0.0
2024-06-05T16:33:21.507931,-1000.0,-1000.0,-806.640625,-803.7109375,0.0
2024-06-05T16:33:21.512695,-251.46484375,-250.0,315.91796875,229.4921875,0.0
2024-06-05T16:33:21.516510,-820.80078125,-820.3125,-1000.0,-1000.0,0.0
2024-06-05T16:33:21.520325,239.2578125,239.74609375,-452.63671875,-343.26171875,0.0
2024-06-05T16:33:21.524140,-1000.0,-1000.0,-924.31640625,-861.328125,0.0
2024-06-05T16:33:21.527956,-562.01171875,-566.89453125,759.765625,630.37109375,0.0
2024-06-05T16:33:21.531771,-948.73046875,-953.61328125,-830.078125,-990.234375,0.0
2024-06-05T16:33:21.535586,593.75,623.046875,-951.66015625,-807.6171875,0.0
2024-06-05T16:33:21.539401,-977.5390625,-936.03515625,569.82421875,732.91015625,0.0
2024-06-05T16:33:21.543216,-1000.0,-1000.0,-831.0546875,-861.81640625,0.0
2024-06-05T16:33:21.547031,404.78515625,309.5703125,-127.9296875,-191.89453125,0.0
2024-06-05T16:33:21.550846,-848.6328125,-851.5625,-1000.0,-1000.0,0.0
2024-06-05T16:33:21.554661,-234.375,-235.3515625,-37.59765625,78.61328125,0.0
2024-06-05T16:33:21.559352,-1000.0,-1000.0,-776.3671875,-764.16015625,0.0
2024-06-05T16:33:21.563168,-120.60546875,-194.3359375,204.58984375,193.359375,0.0
2024-06-05T16:33:21.566984,-801.26953125,-820.80078125,-1000.0,-1000.0,0.0
2024-06-05T16:33:21.570801,217.28515625,228.02734375,-275.390625,-273.4375,0.0
2024-06-05T16:33:21.574617,-1000.0,-1000.0,-812.98828125,-806.640625,0.0
2024-06-05T16:33:21.578433,-264.16015625,-265.625,422.36328125,333.984375,0.0
2024-06-05T16:33:21.582249,-815.4296875,-813.4765625,-1000.0,-1000.0,0.0
2024-06-05T16:33:21.586065,236.81640625,297.36328125,-550.29296875,-456.54296875,0.0
2024-06-05T16:33:21.589881,-1000.0,-1000.0,-992.1875,-927.24609375,0.0
2024-06-05T16:33:21.593698,-645.5078125,-652.34375,886.23046875,772.4609375,0.0
2024-06-05T16:33:21.597514,977.5390625,973.14453125,-642.08984375,-814.453125,0.0
2024-06-05T16:33:21.601330,708.0078125,750.0,-1000.0,-950.68359375,0.0
2024-06-05T16:33:21.606534,-850.5859375,-793.9453125,387.6953125,563.96484375,0.0
2024-06-05T16:33:21.610352,-1000.0,-1000.0,-795.41015625,-821.2890625,0.0
2024-06-05T16:33:21.614170,215.33203125,175.78125,-1.953125,-80.078125,0.0
2024-06-05T16:33:21.617988,-816.40625,-818.359375,-1000.0,-1000.0,0.0
2024-06-05T16:33:21.621806,-120.60546875,-116.69921875,-148.92578125,-33.69140625,0.0
2024-06-05T16:33:21.625623,-1000.0,-1000.0,-787.59765625,-771.484375,0.0
2024-06-05T16:33:21.629441,-229.98046875,-229.4921875,215.33203125,203.125,0.0
2024-06-05T16:33:21.633259,-827.1484375,-826.66015625,-1000.0,-1000.0,0.0
2024-06-05T16:33:21.637077,237.3046875,237.3046875,-275.87890625,-276.3671875,0.0
2024-06-05T16:33:21.640895,-1000.0,-1000.0,-822.75390625,-813.96484375,0.0
2024-06-05T16:33:21.644712,-367.1875,-369.140625,518.5546875,432.6171875,0.0
2024-06-05T16:33:21.648530,-847.16796875,-848.6328125,-1000.0,-1000.0,0.0
2024-06-05T16:33:21.653628,343.26171875,399.90234375,-646.97265625,-562.98828125,0.0
2024-06-05T16:33:21.657448,-1000.0,-1000.0,929.19921875,998.53515625,0.0
2024-06-05T16:33:21.661267,-786.62109375,-795.8984375,-999.0234375,900.390625,0.0
2024-06-05T16:33:21.665086,801.7578125,797.36328125,-442.87109375,-624.51171875,0.0
2024-06-05T16:33:21.668905,865.234375,890.625,-1000.0,-1000.0,0.0
2024-06-05T16:33:21.672725,-677.734375,-632.8125,194.82421875,383.7890625,0.0
2024-06-05T16:33:21.676544,-1000.0,-1000.0,-771.97265625,-790.0390625,0.0
2024-06-05T16:33:21.680363,105.95703125,61.5234375,120.1171875,35.15625,0.0
2024-06-05T16:33:21.684183,-801.7578125,-808.10546875,-1000.0,-1000.0,0.0
2024-06-05T16:33:21.688002,-9.765625,-11.71875,-258.7890625,-156.73828125,0.0
2024-06-05T16:33:21.691821,-1000.0,-1000.0,-807.12890625,-786.1328125,0.0
2024-06-05T16:33:21.695641,-240.234375,-238.76953125,229.98046875,215.33203125,0.0
2024-06-05T16:33:21.700656,-824.70703125,-824.70703125,-1000.0,-1000.0,0.0
2024-06-05T16:33:21.704477,239.74609375,240.234375,-320.80078125,-275.87890625,0.0
2024-06-05T16:33:21.708298,-1000.0,-1000.0,-850.5859375,-823.2421875,0.0
2024-06-05T16:33:21.712119,-467.28515625,-468.75,614.2578125,525.390625,0.0
2024-06-05T16:33:21.715939,-890.13671875,-894.53125,-1000.0,-1000.0,0.0
2024-06-05T16:33:21.719760,445.80078125,517.08984375,-779.78515625,-656.73828125,0.0
2024-06-05T16:33:21.723581,-1000.0,-1000.0,774.4140625,916.50390625,0.0
2024-06-05T16:33:21.727401,-913.0859375,-942.87109375,-885.25390625,-979.4921875,0.0
2024-06-05T16:33:21.731222,610.83984375,587.40234375,-253.41796875,-411.1328125,0.0
2024-06-05T16:33:21.735043,-992.1875,-981.93359375,-1000.0,-1000.0,0.0
2024-06-05T16:33:21.738863,-484.375,-459.47265625,83.984375,191.89453125,0.0
2024-06-05T16:33:21.742684,-1000.0,-1000.0,-768.06640625,-768.06640625,0.0
2024-06-05T16:33:21.747616,-5.859375,-59.5703125,193.84765625,151.85546875,0.0
2024-06-05T16:33:21.751437,-797.36328125,-806.640625,-1000.0,-1000.0,0.0
2024-06-05T16:33:21.755260,103.515625,110.3515625,-271.97265625,-263.18359375,0.0
2024-06-05T16:33:21.759081,-1000.0,-1000.0,-806.15234375,-805.6640625,0.0
2024-06-05T16:33:21.762903,-251.46484375,-250.48828125,306.15234375,230.46875,0.0
2024-06-05T16:33:21.766725,-820.80078125,-820.3125,-1000.0,-1000.0,0.0
2024-06-05T16:33:21.770547,239.74609375,240.234375,-428.22265625,-339.84375,0.0
2024-06-05T16:33:21.774369,-1000.0,-1000.0,-915.52734375,-856.93359375,0.0
2024-06-05T16:33:21.778191,-562.01171875,-562.01171875,757.32421875,615.234375,0.0
2024-06-05T16:33:21.782013,-942.3828125,-948.73046875,-833.49609375,-1000.0,0.0
2024-06-05T16:33:21.785835,543.9453125,601.5625,-933.59375,-808.10546875,0.0
2024-06-05T16:33:21.789657,-1000.0,-962.40234375,598.14453125,738.28125,0.0
2024-06-05T16:33:21.794475,-1000.0,-1000.0,-837.40234375,-873.53515625,0.0
2024-06-05T16:33:21.798298,407.71484375,365.72265625,-143.5546875,-234.86328125,0.0
2024-06-05T16:33:21.802121,-868.1640625,-857.421875,-1000.0,-1000.0,0.0
2024-06-05T16:33:21.805944,-272.4609375,-244.140625,-26.85546875,82.51953125,0.0
2024-06-05T16:33:21.809767,-1000.0,-1000.0,-775.390625,-766.6015625,0.0
2024-06-05T16:33:21.813590,-120.1171875,-175.29296875,203.61328125,193.359375,0.0
2024-06-05T16:33:21.817413,-802.734375,-815.91796875,-1000.0,-1000.0,0.0
2024-06-05T16:33:21.821236,217.28515625,225.5859375,-275.390625,-273.4375,0.0
2024-06-05T16:33:21.825059,-1000.0,-1000.0,-812.01171875,-806.640625,0.0
2024-06-05T16:33:21.828882,-264.16015625,-265.13671875,408.203125,333.49609375,0.0
2024-06-05T16:33:21.832705,-815.4296875,-814.453125,-1000.0,-1000.0,0.0
2024-06-05T16:33:21.836529,236.81640625,276.3671875,-535.15625,-450.68359375,0.0
2024-06-05T16:33:21.841273,-1000.0,-1000.0,-987.3046875,-920.8984375,0.0
2024-06-05T16:33:21.845097,-649.90234375,-649.90234375,885.7421875,758.30078125,0.0
2024-06-05T16:33:21.848921,993.1640625,974.609375,-644.53125,-830.078125,0.0
2024-06-05T16:33:21.852745,641.11328125,735.83984375,-1000.0,-951.171875,0.0
2024-06-05T16:33:21.856569,-923.33984375,-819.3359375,409.1796875,567.87109375,0.0
2024-06-05T16:33:21.860393,-1000.0,-1000.0,-800.29296875,-828.125,0.0
2024-06-05T16:33:21.864217,212.40234375,217.7734375,-25.87890625,-115.72265625,0.0
2024-06-05T16:33:21.868041,-817.3828125,-817.3828125,-1000.0,-1000.0,0.0
2024-06-05T16:33:21.871865,-122.0703125,-127.44140625,-140.13671875,-29.78515625,0.0
2024-06-05T16:33:21.875690,-1000.0,-1000.0,-787.59765625,-773.92578125,0.0
2024-06-05T16:33:21.879514,-229.98046875,-229.4921875,215.33203125,203.125,0.0
2024-06-05T16:33:21.883338,-824.70703125,-826.171875,-1000.0,-1000.0,0.0
2024-06-05T16:33:21.888012,233.88671875,235.83984375,-275.87890625,-276.3671875,0.0
2024-06-05T16:33:21.891837,-1000.0,-1000.0,-821.77734375,-813.4765625,0.0
2024-06-05T16:33:21.895662,-316.40625,-343.26171875,508.30078125,432.6171875,0.0
2024-06-05T16:33:21.899487,-830.078125,-839.35546875,-1000.0,-1000.0,0.0
2024-06-05T16:33:21.903312,334.9609375,386.71875,-640.13671875,-557.6171875,0.0
2024-06-05T16:33:21.907137,-1000.0,-1000.0,931.15234375,-994.62890625,0.0
2024-06-05T16:33:21.910962,-791.50390625,-794.43359375,-999.0234375,887.20703125,0.0
2024-06-05T16:33:21.914787,812.98828125,803.22265625,-445.80078125,-642.08984375,0.0
2024-06-05T16:33:21.918612,825.1953125,875.48828125,-1000.0,-1000.0,0.0
2024-06-05T16:33:21.922437,-729.4921875,-654.78515625,212.40234375,388.671875,0.0
2024-06-05T16:33:21.926262,-1000.0,-1000.0,-773.4375,-796.875,0.0
2024-06-05T16:33:21.930087,105.46875,69.3359375,108.3984375,-11.71875,0.0
2024-06-05T16:33:21.934695,-803.7109375,-807.6171875,-1000.0,-1000.0,0.0
2024-06-05T16:33:21.938521,-14.6484375,-14.6484375,-257.32421875,-152.34375,0.0
2024-06-05T16:33:21.942347,-1000.0,-1000.0,-805.6640625,-789.55078125,0.0
2024-06-05T16:33:21.946173,-239.74609375,-238.28125,227.05078125,216.30859375,0.0
2024-06-05T16:33:21.949999,-825.1953125,-824.70703125,-1000.0,-1000.0,0.0
2024-06-05T16:33:21.953825,239.74609375,240.234375,-273.4375,-275.390625,0.0
2024-06-05T16:33:21.957650,-1000.0,-1000.0,-834.47265625,-822.265625,0.0
2024-06-05T16:33:21.961476,-460.44921875,-467.7734375,612.3046875,510.25390625,0.0
2024-06-05T16:33:21.965302,-887.20703125,-889.6484375,-1000.0,-1000.0,0.0
2024-06-05T16:33:21.969128,444.3359375,454.1015625,-694.3359375,-665.0390625,0.0
2024-06-05T16:33:21.972954,-1000.0,-1000.0,866.2109375,915.52734375,0.0
2024-06-05T16:33:21.976780,-912.59765625,-954.58984375,-898.92578125,-995.1171875,0.0
2024-06-05T16:33:21.981823,608.88671875,561.03515625,-239.2578125,-444.82421875,0.0
2024-06-05T16:33:21.985650,-986.81640625,992.67578125,-1000.0,-1000.0,0.0
2024-06-05T16:33:21.989477,-476.07421875,-504.39453125,93.26171875,193.84765625,0.0
2024-06-05T16:33:21.993305,-1000.0,-1000.0,-766.11328125,-770.5078125,0.0
2024-06-05T16:33:21.997132,-5.859375,-63.96484375,193.359375,136.23046875,0.0
2024-06-05T16:33:22.000959,-796.875,-811.03515625,-1000.0,-1000.0,0.0
2024-06-05T16:33:22.004786,103.515625,96.19140625,-269.04296875,-260.7421875,0.0
2024-06-05T16:33:22.008613,-1000.0,-1000.0,-808.10546875,-804.6875,0.0
2024-06-05T16:33:22.012441,-251.46484375,-248.53515625,259.765625,228.02734375,0.0
2024-06-05T16:33:22.016268,-818.359375,-821.2890625,-1000.0,-1000.0,0.0
2024-06-05T16:33:22.020095,238.28125,240.234375,-447.75390625,-296.875,0.0
2024-06-05T16:33:22.023922,-1000.0,-1000.0,-916.50390625,-842.28515625,0.0
2024-06-05T16:33:22.028884,-496.58203125,-562.01171875,708.0078125,611.81640625,0.0
2024-06-05T16:33:22.032712,-911.62109375,-949.70703125,-888.18359375,-1000.0,0.0
2024-06-05T16:33:22.036541,552.734375,607.91015625,-941.89453125,-758.30078125,0.0
2024-06-05T16:33:22.040369,-989.74609375,-968.75,569.82421875,791.50390625,0.0
2024-06-05T16:33:22.044197,-1000.0,-1000.0,-835.44921875,-880.859375,0.0
2024-06-05T16:33:22.048026,404.296875,409.1796875,-147.4609375,-223.14453125,0.0
2024-06-05T16:33:22.051854,-852.5390625,-857.421875,-1000.0,-1000.0,0.0
2024-06-05T16:33:22.055683,-242.67578125,-247.0703125,-26.3671875,85.9375,0.0
2024-06-05T16:33:22.059511,-1000.0,-1000.0,-775.390625,-765.625,0.0
2024-06-05T16:33:22.063339,-120.60546875,-139.16015625,203.61328125,193.359375,0.0
2024-06-05T16:33:22.067168,-801.7578125,-806.15234375,-1000.0,-1000.0,0.0
2024-06-05T16:33:22.070996,217.28515625,220.21484375,-274.4140625,-273.4375,0.0
2024-06-05T16:33:22.075880,-1000.0,-1000.0,-811.03515625,-804.6875,0.0
2024-06-05T16:33:22.079710,-264.16015625,-266.6015625,384.27734375,332.03125,0.0
2024-06-05T16:33:22.083539,-814.94140625,-813.4765625,-1000.0,-1000.0,0.0
2024-06-05T16:33:22.087369,236.81640625,290.52734375,-526.3671875,-410.64453125,0.0
2024-06-05T16:33:22.091198,-1000.0,-1000.0,-982.421875,-903.80859375,0.0
2024-06-05T16:33:22.095028,-632.8125,-637.6953125,871.09375,753.90625,0.0
2024-06-05T16:33:22.098857,-995.1171875,987.3046875,-667.48046875,-833.984375,0.0
2024-06-05T16:33:22.102687,632.32421875,725.09765625,-1000.0,-925.78125,0.0
2024-06-05T16:33:22.106516,-925.78125,-826.171875,426.7578125,603.02734375,0.0
2024-06-05T16:33:22.110346,-1000.0,-1000.0,-802.734375,-834.47265625,0.0
2024-06-05T16:33:22.114175,219.7265625,216.30859375,-30.76171875,-119.140625,0.0
2024-06-05T16:33:22.118005,-831.54296875,-815.4296875,-1000.0,-1000.0,0.0
2024-06-05T16:33:22.122815,-174.8046875,-120.1171875,-138.671875,-29.296875,0.0
2024-06-05T16:33:22.126646,-1000.0,-1000.0,-788.0859375,-773.92578125,0.0
2024-06-05T16:33:22.130476,-226.07421875,-229.98046875,215.33203125,203.61328125,0.0
2024-06-05T16:33:22.134306,-825.68359375,-825.1953125,-1000.0,-1000.0,0.0
2024-06-05T16:33:22.138137,231.4453125,235.83984375,-275.390625,-276.3671875,0.0
2024-06-05T16:33:22.141968,-1000.0,-1000.0,-820.3125,-812.5,0.0
2024-06-05T16:33:22.145798,-271.484375,-340.33203125,498.046875,432.12890625,0.0
2024-06-05T16:33:22.149628,-814.453125,-837.890625,-1000.0,-1000.0,0.0
2024-06-05T16:33:22.153459,327.63671875,364.2578125,-608.3984375,-527.34375,0.0
2024-06-05T16:33:22.157290,-1000.0,-1000.0,948.2421875,-979.00390625,0.0
2024-06-05T16:33:22.161120,-795.8984375,-792.48046875,998.046875,882.8125,0.0
2024-06-05T16:33:22.164950,821.2890625,806.640625,-450.1953125,-644.53125,0.0
2024-06-05T16:33:22.169690,793.45703125,856.4453125,-1000.0,-1000.0,0.0
2024-06-05T16:33:22.173522,-770.01953125,-687.5,251.953125,411.1328125,0.0
2024-06-05T16:33:22.177353,-1000.0,-1000.0,-777.83203125,-798.33984375,0.0
2024-06-05T16:33:22.181185,112.3046875,107.421875,82.51953125,-7.8125,0.0
2024-06-05T16:33:22.185016,-815.91796875,-806.15234375,-1000.0,-1000.0,0.0
2024-06-05T16:33:22.188848,-75.1953125,-33.203125,-247.0703125,-142.578125,0.0
2024-06-05T16:33:22.192679,-1000.0,-1000.0,-806.15234375,-786.62109375,0.0
2024-06-05T16:33:22.196510,-233.3984375,-237.3046875,226.5625,214.84375,0.0
2024-06-05T16:33:22.200342,-825.68359375,-825.1953125,-1000.0,-1000.0,0.0
2024-06-05T16:33:22.204173,237.3046875,239.74609375,-273.4375,-275.87890625,0.0
2024-06-05T16:33:22.208004,-1000.0,-1000.0,-831.0546875,-822.75390625,0.0
2024-06-05T16:33:22.211836,-393.06640625,-452.63671875,585.9375,525.87890625,0.0
2024-06-05T16:33:22.216509,-857.91015625,-884.27734375,-1000.0,-1000.0,0.0
2024-06-05T16:33:22.220341,432.12890625,462.40234375,-726.5625,-634.27734375,0.0
2024-06-05T16:33:22.224174,-1000.0,-1000.0,825.68359375,938.4765625,0.0
2024-06-05T16:33:22.228006,-923.828125,-916.9921875,-893.06640625,998.53515625,0.0
2024-06-05T16:33:22.231838,633.7890625,613.28125,-254.8828125,-444.3359375,0.0
2024-06-05T16:33:22.235670,933.10546875,-994.62890625,-1000.0,-1000.0,0.0
2024-06-05T16:33:22.239503,-599.12109375,-483.88671875,110.83984375,208.49609375,0.0
2024-06-05T16:33:22.243335,-1000.0,-1000.0,-766.11328125,-773.4375,0.0
2024-06-05T16:33:22.247167,-0.48828125,-21.484375,191.40625,107.91015625,0.0
2024-06-05T16:33:22.250999,-807.12890625,-802.734375,-1000.0,-1000.0,0.0
2024-06-05T16:33:22.254832,54.6875,87.40234375,-270.01953125,-256.8359375,0.0
2024-06-05T16:33:22.258664,-1000.0,-1000.0,-804.6875,-807.12890625,0.0
2024-06-05T16:33:22.263273,-245.60546875,-248.53515625,270.99609375,228.515625,0.0
2024-06-05T16:33:22.267106,-822.265625,-820.80078125,-1000.0,-1000.0,0.0
2024-06-05T16:33:22.270939,239.2578125,240.234375,-381.8359375,-298.828125,0.0
2024-06-05T16:33:22.274772,-1000.0,-1000.0,-891.11328125,-842.7734375,0.0
2024-06-05T16:33:22.278605,-499.0234375,-547.8515625,716.30859375,611.328125,0.0
2024-06-05T16:33:22.282439,-909.66796875,-939.94140625,-884.27734375,-1000.0,0.0
2024-06-05T16:33:22.286272,531.25,582.51953125,-882.32421875,-770.5078125,0.0
2024-06-05T16:33:22.290104,-1000.0,-980.46875,653.80859375,785.15625,0.0
2024-06-05T16:33:22.293937,-1000.0,-1000.0,-845.21484375,-887.20703125,0.0
2024-06-05T16:33:22.297771,435.05859375,417.96875,-144.53125,-252.9296875,0.0
2024-06-05T16:33:22.301604,-944.82421875,-889.16015625,-1000.0,-1000.0,0.0
2024-06-05T16:33:22.305437,-416.50390625,-305.17578125,-7.8125,83.984375,0.0
2024-06-05T16:33:22.309985,-1000.0,-1000.0,-772.94921875,-768.06640625,0.0
2024-06-05T16:33:22.313819,-114.2578125,-148.4375,201.66015625,193.84765625,0.0
2024-06-05T16:33:22.317652,-810.05859375,-812.5,-1000.0,-1000.0,0.0
2024-06-05T16:33:22.321486,188.96484375,207.51953125,-274.4140625,-271.97265625,0.0
2024-06-05T16:33:22.325320,-1000.0,-1000.0,-809.5703125,-805.17578125,0.0
2024-06-05T16:33:22.329154,-259.765625,-260.7421875,376.46484375,309.5703125,0.0
2024-06-05T16:33:22.332988,-816.40625,-815.91796875,-1000.0,-1000.0,0.0
2024-06-05T16:33:22.336821,237.79296875,237.3046875,-492.67578125,-411.62109375,0.0
2024-06-05T16:33:22.340655,-1000.0,-1000.0,-961.42578125,-907.71484375,0.0
2024-06-05T16:33:22.344489,-600.09765625,-637.6953125,851.5625,754.8828125,0.0
2024-06-05T16:33:22.348322,-974.12109375,988.28125,-692.87109375,-833.49609375,0.0
2024-06-05T16:33:22.352156,625.48828125,687.5,-1000.0,-928.22265625,0.0
2024-06-05T16:33:22.357105,-922.36328125,-869.62890625,463.37890625,604.98046875,0.0
2024-06-05T16:33:22.360939,-1000.0,-1000.0,-806.640625,-838.8671875,0.0
2024-06-05T16:33:22.364774,226.5625,218.75,-32.2265625,-143.06640625,0.0
2024-06-05T16:33:22.368609,-843.75,-823.2421875,-1000.0,-1000.0,0.0
2024-06-05T16:33:22.372444,-221.6796875,-147.94921875,-126.953125,-26.85546875,0.0
2024-06-05T16:33:22.376278,-1000.0,-1000.0,-785.64453125,-775.390625,0.0
2024-06-05T16:33:22.380113,-222.16796875,-228.02734375,213.37890625,203.61328125,0.0
2024-06-05T16:33:22.383948,-828.125,-826.66015625,-1000.0,-1000.0,0.0
2024-06-05T16:33:22.387783,231.4453125,235.3515625,-275.390625,-275.390625,0.0
2024-06-05T16:33:22.391618,-1000.0,-1000.0,-817.87109375,-811.5234375,0.0
2024-06-05T16:33:22.395452,-268.06640625,-331.0546875,475.09765625,411.1328125,0.0
2024-06-05T16:33:22.399287,-813.4765625,-834.47265625,-1000.0,-1000.0,0.0
2024-06-05T16:33:22.404162,331.0546875,344.7265625,-598.6328125,-523.92578125,0.0
2024-06-05T16:33:22.407998,-1000.0,-1000.0,958.984375,-980.95703125,0.0
2024-06-05T16:33:22.411834,-734.375,-776.85546875,974.12109375,883.7890625,0.0
2024-06-05T16:33:22.415669,888.18359375,824.21875,-488.76953125,-644.53125,0.0
2024-06-05T16:33:22.419505,780.76171875,839.35546875,-1000.0,-1000.0,0.0
2024-06-05T16:33:22.423341,-766.6015625,-706.0546875,264.6484375,415.52734375,0.0
2024-06-05T16:33:22.427177,-1000.0,-1000.0,-779.296875,-801.26953125,0.0
2024-06-05T16:33:22.431013,115.234375,110.83984375,82.03125,-30.76171875,0.0
2024-06-05T16:33:22.434849,-820.3125,-809.08203125,-1000.0,-1000.0,0.0
2024-06-05T16:33:22.438684,-97.16796875,-48.828125,-244.62890625,-139.6484375,0.0
2024-06-05T16:33:22.442520,-1000.0,-1000.0,-805.17578125,-788.0859375,0.0
2024-06-05T16:33:22.446356,-230.95703125,-235.83984375,226.5625,215.33203125,0.0
2024-06-05T16:33:22.451160,-826.171875,-825.68359375,-1000.0,-1000.0,0.0
2024-06-05T16:33:22.454997,236.81640625,239.2578125,-273.92578125,-275.87890625,0.0
2024-06-05T16:33:22.458834,-1000.0,-1000.0,-828.61328125,-821.2890625,0.0
2024-06-05T16:33:22.462671,-371.09375,-436.03515625,565.91796875,510.7421875,0.0
2024-06-05T16:33:22.466507,-849.12109375,-877.44140625,-1000.0,-1000.0,0.0
2024-06-05T16:33:22.470344,431.640625,463.37890625,-713.37890625,-626.953125,0.0
2024-06-05T16:33:22.474181,-1000.0,-1000.0,842.7734375,939.94140625,0.0
2024-06-05T16:33:22.478017,-885.7421875,-909.1796875,-912.59765625,998.53515625,0.0
2024-06-05T16:33:22.481854,683.59375,629.39453125,-289.55078125,-444.82421875,0.0
2024-06-05T16:33:22.485691,925.29296875,995.60546875,-1000.0,-1000.0,0.0
2024-06-05T16:33:22.489528,-598.14453125,-499.51171875,115.72265625,216.796875,0.0
2024-06-05T16:33:22.493364,-1000.0,-1000.0,-766.6015625,-775.87890625,0.0
2024-06-05T16:33:22.498101,0.0,-3.90625,191.40625,83.984375,0.0
2024-06-05T16:33:22.501939,-808.10546875,-799.31640625,-1000.0,-1000.0,0.0
2024-06-05T16:33:22.505777,48.33984375,87.890625,-268.5546875,-253.41796875,0.0
2024-06-05T16:33:22.509614,-1000.0,-1000.0,-804.6875,-808.10546875,0.0
2024-06-05T16:33:22.513452,-244.62890625,-249.51171875,245.60546875,228.515625,0.0
2024-06-05T16:33:22.517289,-821.77734375,-820.80078125,-1000.0,-1000.0,0.0
2024-06-05T16:33:22.521127,238.76953125,239.74609375,-370.1171875,-283.69140625,0.0
2024-06-05T16:33:22.524965,-1000.0,-1000.0,-883.30078125,-836.42578125,0.0
2024-06-05T16:33:22.528802,-469.23828125,-543.45703125,689.453125,598.14453125,0.0
2024-06-05T16:33:22.532640,-894.53125,-933.59375,-913.57421875,-1000.0,0.0
2024-06-05T16:33:22.536477,528.3203125,552.734375,-871.09375,-757.32421875,0.0
2024-06-05T16:33:22.540315,-1000.0,-998.53515625,664.0625,796.38671875,0.0
2024-06-05T16:33:22.544988,-1000.0,-1000.0,-850.09765625,-888.671875,0.0
2024-06-05T16:33:22.548826,468.75,415.52734375,-159.66796875,-253.41796875,0.0
2024-06-05T16:33:22.552665,-948.73046875,-885.7421875,-1000.0,-1000.0,0.0
2024-06-05T16:33:22.556503,-416.50390625,-302.734375,0.9765625,91.30859375,0.0
2024-06-05T16:33:22.560341,-1000.0,-1000.0,-772.4609375,-767.08984375,0.0
2024-06-05T16:33:22.564179,-113.28125,-135.7421875,201.171875,193.359375,0.0
2024-06-05T16:33:22.568018,-811.5234375,-808.59375,-1000.0,-1000.0,0.0
2024-06-05T16:33:22.571856,176.26953125,211.9140625,-273.4375,-270.5078125,0.0
2024-06-05T16:33:22.575695,-1000.0,-1000.0,-808.59375,-805.17578125,0.0
2024-06-05T16:33:22.579533,-258.30078125,-262.20703125,352.5390625,285.15625,0.0
2024-06-05T16:33:22.583371,-816.40625,-814.94140625,-1000.0,-1000.0,0.0
2024-06-05T16:33:22.587209,237.79296875,237.3046875,-481.4453125,-394.04296875,0.0
2024-06-05T16:33:22.591821,-1000.0,-1000.0,-954.58984375,-901.3671875,0.0
2024-06-05T16:33:22.595660,-562.01171875,-623.53515625,834.47265625,743.65234375,0.0
2024-06-05T16:33:22.599499,-950.1953125,996.09375,-718.75,-849.12109375,0.0
2024-06-05T16:33:22.603338,618.65234375,688.4765625,-1000.0,-909.1796875,0.0
2024-06-05T16:33:22.607177,-921.38671875,-870.60546875,482.421875,627.44140625,0.0
2024-06-05T16:33:22.611017,-1000.0,-1000.0,-810.546875,-841.796875,0.0
2024-06-05T16:33:22.614856,238.76953125,241.2109375,-44.43359375,-143.5546875,0.0
2024-06-05T16:33:22.618695,-844.7265625,-825.1953125,-1000.0,-1000.0,0.0
2024-06-05T16:33:22.622534,-222.16796875,-150.390625,-115.234375,-21.97265625,0.0
2024-06-05T16:33:22.626373,-1000.0,-1000.0,-784.1796875,-774.90234375,0.0
2024-06-05T16:33:22.630212,-221.6796875,-227.5390625,212.40234375,203.125,0.0
2024-06-05T16:33:22.634051,-828.125,-825.68359375,-1000.0,-1000.0,0.0
2024-06-05T16:33:22.638604,231.4453125,234.375,-274.90234375,-274.90234375,0.0
2024-06-05T16:33:22.642443,-1000.0,-1000.0,-816.40625,-810.546875,0.0
2024-06-05T16:33:22.646283,-268.06640625,-312.98828125,458.0078125,395.5078125,0.0
2024-06-05T16:33:22.650123,-813.4765625,-828.125,-1000.0,-1000.0,0.0
2024-06-05T16:33:22.653962,336.42578125,337.40234375,-586.9140625,-500.9765625,0.0
2024-06-05T16:33:22.657802,-1000.0,-1000.0,968.26171875,-974.12109375,0.0
2024-06-05T16:33:22.661642,-657.71484375,-755.859375,958.984375,888.671875,0.0
2024-06-05T16:33:22.665482,972.16796875,857.91015625,-512.6953125,-665.52734375,0.0
2024-06-05T16:33:22.669321,764.6484375,802.734375,-1000.0,-995.1171875,0.0
2024-06-05T16:33:22.673161,-762.6953125,-746.58203125,278.80859375,523.92578125,0.0
2024-06-05T16:33:22.677001,-1000.0,-1000.0,-781.73828125,-814.453125,0.0
2024-06-05T16:33:22.680840,116.69921875,109.86328125,70.80078125,-30.2734375,0.0
2024-06-05T16:33:22.685337,-823.2421875,-810.05859375,-1000.0,-1000.0,0.0
2024-06-05T16:33:22.689178,-111.81640625,-48.828125,-236.81640625,-140.13671875,0.0
2024-06-05T16:33:22.693018,-1000.0,-1000.0,-804.19921875,-788.0859375,0.0
2024-06-05T16:33:22.696858,-229.4921875,-235.83984375,225.5859375,215.33203125,0.0
2024-06-05T16:33:22.700698,-827.63671875,-824.70703125,-1000.0,-1000.0,0.0
2024-06-05T16:33:22.704539,237.3046875,238.76953125,-273.92578125,-275.390625,0.0
2024-06-05T16:33:22.708379,-1000.0,-1000.0,-827.1484375,-819.82421875,0.0
2024-06-05T16:33:22.712219,-371.09375,-419.43359375,552.24609375,494.62890625,0.0
2024-06-05T16:33:22.716059,-850.09765625,-870.1171875,-1000.0,-1000.0,0.0
2024-06-05T16:33:22.719900,437.5,449.21875,-713.37890625,-608.88671875,0.0
2024-06-05T16:33:22.723740,-1000.0,-1000.0,845.21484375,947.75390625,0.0
2024-06-05T16:33:22.727580,-819.82421875,-895.5078125,-924.31640625,996.58203125,0.0
2024-06-05T16:33:22.732447,770.01953125,643.5546875,-311.5234375,-446.2890625,0.0
2024-06-05T16:33:22.736288,912.59765625,993.1640625,-1000.0,-1000.0,0.0
2024-06-05T16:33:22.740129,-596.19140625,-499.0234375,114.74609375,229.00390625,0.0
2024-06-05T16:33:22.743970,-1000.0,-1000.0,-767.578125,-776.3671875,0.0
2024-06-05T16:33:22.747812,0.0,-3.90625,190.91796875,83.984375,0.0
2024-06-05T16:33:22.751653,-807.6171875,-799.31640625,-1000.0,-1000.0,0.0
2024-06-05T16:33:22.755494,49.31640625,89.35546875,-267.578125,-253.90625,0.0
2024-06-05T16:33:22.759335,-1000.0,-1000.0,-805.17578125,-807.6171875,0.0
2024-06-05T16:33:22.763176,-244.62890625,-249.51171875,231.4453125,228.02734375,0.0
2024-06-05T16:33:22.767018,-821.2890625,-819.82421875,-1000.0,-1000.0,0.0
2024-06-05T16:33:22.770859,238.76953125,239.74609375,-371.09375,-273.4375,0.0
2024-06-05T16:33:22.774700,-1000.0,-1000.0,-880.859375,-830.56640625,0.0
2024-06-05T16:33:22.779472,-469.7265625,-523.92578125,671.875,578.61328125,0.0
2024-06-05T16:33:22.783314,-895.99609375,-927.24609375,-934.08203125,-1000.0,0.0
2024-06-05T16:33:22.787156,533.69140625,577.1484375,-866.69921875,-730.95703125,0.0
2024-06-05T16:33:22.790998,-1000.0,-984.375,666.015625,819.3359375,0.0
2024-06-05T16:33:22.794840,-969.23828125,-1000.0,-853.02734375,-892.578125,0.0
2024-06-05T16:33:22.798682,542.48046875,438.4765625,-169.43359375,-253.41796875,0.0
2024-06-05T16:33:22.802524,-957.03125,-886.23046875,-1000.0,-1000.0,0.0
2024-06-05T16:33:22.806366,-416.015625,-301.7578125,0.0,98.6328125,0.0
2024-06-05T16:33:22.810208,-1000.0,-1000.0,-773.4375,-767.08984375,0.0
2024-06-05T16:33:22.814050,-113.28125,-118.1640625,201.171875,192.87109375,0.0
2024-06-05T16:33:22.817892,-811.03515625,-804.19921875,-1000.0,-1000.0,0.0
2024-06-05T16:33:22.821734,176.7578125,203.61328125,-272.94921875,-268.5546875,0.0
2024-06-05T16:33:22.826470,-1000.0,-1000.0,-808.10546875,-804.6875,0.0
2024-06-05T16:33:22.830312,-258.30078125,-261.71875,340.33203125,252.9296875,0.0
2024-06-05T16:33:22.834155,-816.40625,-814.94140625,-1000.0,-1000.0,0.0
2024-06-05T16:33:22.837998,238.28125,237.79296875,-477.05078125,-370.60546875,0.0
2024-06-05T16:33:22.841841,-1000.0,-1000.0,-950.1953125,-889.16015625,0.0
2024-06-05T16:33:22.845684,-562.01171875,-607.91015625,821.77734375,715.8203125,0.0
2024-06-05T16:33:22.849527,-951.171875,-987.79296875,-736.328125,-880.859375,0.0
2024-06-05T16:33:22.853369,623.53515625,662.59765625,-1000.0,-887.20703125,0.0
2024-06-05T16:33:22.857212,-933.10546875,-891.11328125,489.74609375,647.94921875,0.0
2024-06-05T16:33:22.861055,-1000.0,-1000.0,-812.5,-844.7265625,0.0
2024-06-05T16:33:22.864898,300.29296875,234.86328125,-51.7578125,-144.04296875,0.0
2024-06-05T16:33:22.868741,-848.6328125,-828.61328125,-1000.0,-1000.0,0.0
2024-06-05T16:33:22.873388,-223.6328125,-163.57421875,-106.93359375,-15.13671875,0.0
2024-06-05T16:33:22.877231,-1000.0,-1000.0,-783.203125,-773.92578125,0.0
2024-06-05T16:33:22.881074,-222.16796875,-226.5625,211.42578125,202.63671875,0.0
2024-06-05T16:33:22.884918,-828.125,-825.68359375,-1000.0,-1000.0,0.0
2024-06-05T16:33:22.888762,231.4453125,233.3984375,-275.390625,-273.4375,0.0
2024-06-05T16:33:22.892605,-1000.0,-1000.0,-815.91796875,-808.59375,0.0
2024-06-05T16:33:22.896448,-268.06640625,-295.41015625,454.1015625,360.3515625,0.0
2024-06-05T16:33:22.900292,-813.4765625,-822.265625,-1000.0,-1000.0,0.0
2024-06-05T16:33:22.904135,336.42578125,326.66015625,-575.68359375,-478.02734375,0.0
2024-06-05T16:33:22.907979,-1000.0,-1000.0,979.00390625,-958.0078125,0.0
2024-06-05T16:33:22.911822,-657.2265625,-754.8828125,943.84765625,854.4921875,0.0
2024-06-05T16:33:22.915666,971.6796875,861.328125,-531.25,-688.4765625,0.0
2024-06-05T16:33:22.920255,767.578125,791.50390625,-1000.0,-1000.0,0.0
2024-06-05T16:33:22.924099,-769.04296875,-764.16015625,279.296875,472.16796875,0.0
2024-06-05T16:33:22.927943,-1000.0,-1000.0,-783.69140625,-807.12890625,0.0
2024-06-05T16:33:22.931787,159.66796875,118.1640625,59.08203125,-32.71484375,0.0
2024-06-05T16:33:22.935631,-819.82421875,-810.05859375,-1000.0,-1000.0,0.0
2024-06-05T16:33:22.939475,-115.72265625,-49.8046875,-236.81640625,-121.09375,0.0
2024-06-05T16:33:22.943320,-1000.0,-1000.0,-805.6640625,-784.66796875,0.0
2024-06-05T16:33:22.947164,-229.98046875,-235.83984375,226.07421875,212.890625,0.0
2024-06-05T16:33:22.951008,-827.63671875,-824.21875,-1000.0,-1000.0,0.0
2024-06-05T16:33:22.954852,237.3046875,238.28125,-273.92578125,-275.390625,0.0
2024-06-05T16:33:22.958696,-1000.0,-1000.0,-824.21875,-817.87109375,0.0
2024-06-05T16:33:22.962540,-371.09375,-412.59765625,532.71484375,483.3984375,0.0
2024-06-05T16:33:22.967073,-850.5859375,-866.2109375,-1000.0,-1000.0,0.0
2024-06-05T16:33:22.970918,439.94140625,431.640625,-662.109375,-573.2421875,0.0
2024-06-05T16:33:22.974763,-1000.0,-1000.0,899.90234375,971.19140625,0.0
2024-06-05T16:33:22.978607,-799.31640625,-879.8828125,-944.82421875,983.88671875,0.0
2024-06-05T16:33:22.982452,796.38671875,672.36328125,-340.33203125,-474.12109375,0.0
2024-06-05T16:33:22.986297,910.15625,961.42578125,-1000.0,-1000.0,0.0
2024-06-05T16:33:22.990142,-597.65625,-546.38671875,153.80859375,300.29296875,0.0
2024-06-05T16:33:22.993986,-1000.0,-1000.0,-767.08984375,-780.76171875,0.0
2024-06-05T16:33:22.997831,26.3671875,7.8125,175.78125,80.56640625,0.0
2024-06-05T16:33:23.001676,-811.03515625,-803.22265625,-1000.0,-1000.0,0.0
2024-06-05T16:33:23.005520,-0.9765625,58.10546875,-266.11328125,-236.328125,0.0
2024-06-05T16:33:23.009365,-1000.0,-1000.0,-805.6640625,-803.22265625,0.0
2024-06-05T16:33:23.013845,-239.2578125,-246.09375,231.4453125,225.09765625,0.0
2024-06-05T16:33:23.017690,-825.1953125,-821.77734375,-1000.0,-1000.0,0.0
2024-06-05T16:33:23.021535,239.74609375,239.74609375,-362.3046875,-273.92578125,0.0
2024-06-05T16:33:23.025381,-1000.0,-1000.0,-871.58203125,-829.58984375,0.0
2024-06-05T16:33:23.029226,-469.23828125,-510.25390625,647.4609375,576.66015625,0.0
2024-06-05T16:33:23.033071,-897.4609375,-916.015625,-977.05078125,-1000.0,0.0
2024-06-05T16:33:23.036916,538.57421875,540.52734375,-810.05859375,-665.52734375,0.0
2024-06-05T16:33:23.040762,-1000.0,-1000.0,734.375,890.13671875,0.0
2024-06-05T16:33:23.044607,-926.7578125,-1000.0,-865.234375,-908.69140625,0.0
2024-06-05T16:33:23.048452,607.91015625,458.984375,-188.4765625,-266.6015625,0.0
2024-06-05T16:33:23.052297,-963.37890625,-935.546875,-1000.0,-1000.0,0.0
2024-06-05T16:33:23.056143,-417.48046875,-394.04296875,40.0390625,135.25390625,0.0
2024-06-05T16:33:23.060571,-1000.0,-1000.0,-769.53125,-764.6484375,0.0
2024-06-05T16:33:23.064417,-96.6796875,-111.81640625,197.75390625,189.94140625,0.0
2024-06-05T16:33:23.068263,-813.4765625,-811.03515625,-1000.0,-1000.0,0.0
2024-06-05T16:33:23.072109,114.2578125,156.73828125,-272.94921875,-268.06640625,0.0
2024-06-05T16:33:23.075954,-1000.0,-1000.0,-807.12890625,-805.17578125,0.0
2024-06-05T16:33:23.079800,-250.0,-255.37109375,334.47265625,240.234375,0.0
2024-06-05T16:33:23.083646,-820.80078125,-818.359375,-1000.0,-1000.0,0.0
2024-06-05T16:33:23.087491,239.74609375,238.76953125,-468.26171875,-368.65234375,0.0
2024-06-05T16:33:23.091337,-1000.0,-1000.0,-938.96484375,-887.20703125,0.0
2024-06-05T16:33:23.095183,-562.01171875,-598.14453125,794.43359375,706.0546875,0.0
2024-06-05T16:33:23.099028,-953.61328125,-972.16796875,-790.0390625,-913.57421875,0.0
2024-06-05T16:33:23.102874,631.8359375,621.58203125,-954.58984375,-825.68359375,0.0
2024-06-05T16:33:23.107648,-953.125,-935.546875,563.96484375,723.14453125,0.0
2024-06-05T16:33:23.111494,-1000.0,-1000.0,-823.2421875,-854.00390625,0.0
2024-06-05T16:33:23.115340,408.69140625,267.08984375,-74.21875,-146.484375,0.0
2024-06-05T16:33:23.119187,-855.46875,-840.33203125,-1000.0,-1000.0,0.0
2024-06-05T16:33:23.123034,-226.5625,-203.61328125,-78.125,16.6015625,0.0
2024-06-05T16:33:23.126880,-1000.0,-1000.0,-779.78515625,-769.53125,0.0
2024-06-05T16:33:23.130726,-216.796875,-214.35546875,208.49609375,199.21875,0.0
2024-06-05T16:33:23.134573,-826.66015625,-824.21875,-1000.0,-1000.0,0.0
2024-06-05T16:33:23.138419,230.95703125,230.46875,-275.390625,-273.4375,0.0
2024-06-05T16:33:23.142266,-1000.0,-1000.0,-813.96484375,-808.10546875,0.0
2024-06-05T16:33:23.146112,-264.6484375,-270.01953125,433.10546875,349.12109375,0.0
2024-06-05T16:33:23.149959,-814.94140625,-814.453125,-1000.0,-1000.0,0.0
2024-06-05T16:33:23.154672,282.2265625,313.96484375,-570.80078125,-471.19140625,0.0
2024-06-05T16:33:23.158519,-1000.0,-1000.0,985.83984375,-953.125,0.0
2024-06-05T16:33:23.162366,-648.4375,-710.9375,924.8046875,844.7265625,0.0
2024-06-05T16:33:23.166213,965.8203125,912.109375,-586.9140625,-718.26171875,0.0
2024-06-05T16:33:23.170060,773.92578125,767.578125,-1000.0,-979.00390625,0.0
2024-06-05T16:33:23.173907,-777.34375,-781.73828125,369.62890625,535.15625,0.0
2024-06-05T16:33:23.177755,-1000.0,-1000.0,-790.0390625,-813.4765625,0.0
2024-06-05T16:33:23.181602,217.7734375,139.16015625,42.96875,-34.66796875,0.0
2024-06-05T16:33:23.185449,-815.91796875,-818.359375,-1000.0,-1000.0,0.0
2024-06-05T16:33:23.189296,-120.60546875,-99.609375,-195.3125,-102.05078125,0.0
2024-06-05T16:33:23.193143,-1000.0,-1000.0,-795.8984375,-781.25,0.0
2024-06-05T16:33:23.196990,-230.46875,-230.95703125,220.703125,210.44921875,0.0
2024-06-05T16:33:23.201645,-827.63671875,-826.66015625,-1000.0,-1000.0,0.0
2024-06-05T16:33:23.205493,237.3046875,237.79296875,-274.90234375,-275.390625,0.0
2024-06-05T16:33:23.209341,-1000.0,-1000.0,-823.73046875,-815.91796875,0.0
2024-06-05T16:33:23.213188,-369.62890625,-385.7421875,525.87890625,454.58984375,0.0
2024-06-05T16:33:23.217036,-849.12109375,-854.98046875,-1000.0,-1000.0,0.0
2024-06-05T16:33:23.220884,397.94921875,425.29296875,-663.57421875,-570.3125,0.0
2024-06-05T16:33:23.224732,-1000.0,-1000.0,905.2734375,974.609375,0.0
2024-06-05T16:33:23.228580,-791.9921875,-860.83984375,-962.40234375,965.8203125,0.0
2024-06-05T16:33:23.232427,791.50390625,712.40234375,-379.39453125,-515.13671875,0.0
2024-06-05T16:33:23.236275,916.50390625,923.33984375,-1000.0,-1000.0,0.0
2024-06-05T16:33:23.240123,-606.93359375,-600.09765625,178.22265625,339.35546875,0.0
2024-06-05T16:33:23.243971,-1000.0,-1000.0,-767.578125,-783.203125,0.0
2024-06-05T16:33:23.248569,99.12109375,24.90234375,158.203125,78.125,0.0
2024-06-05T16:33:23.252418,-801.7578125,-806.640625,-1000.0,-1000.0,0.0
2024-06-05T16:33:23.256266,-8.7890625,27.83203125,-263.671875,-219.23828125,0.0
2024-06-05T16:33:23.260115,-1000.0,-1000.0,-806.15234375,-798.33984375,0.0
2024-06-05T16:33:23.263963,-240.234375,-242.67578125,230.95703125,222.65625,0.0
2024-06-05T16:33:23.267812,-824.70703125,-822.75390625,-1000.0,-1000.0,0.0
2024-06-05T16:33:23.271660,239.74609375,239.74609375,-353.02734375,-274.4140625,0.0
2024-06-05T16:33:23.275508,-1000.0,-1000.0,-861.328125,-827.1484375,0.0
2024-06-05T16:33:23.279357,-468.75,-483.3984375,617.67578125,552.734375,0.0
2024-06-05T16:33:23.283205,-895.01953125,-901.85546875,-1000.0,-1000.0,0.0
2024-06-05T16:33:23.287054,507.8125,530.76171875,-806.15234375,-663.57421875,0.0
2024-06-05T16:33:23.290902,-1000.0,-1000.0,735.83984375,894.04296875,0.0
2024-06-05T16:33:23.295447,-920.8984375,-997.55859375,-869.140625,-925.29296875,0.0
2024-06-05T16:33:23.299296,604.4921875,497.0703125,-212.40234375,-304.6875,0.0
2024-06-05T16:33:23.303145,-958.49609375,-950.1953125,-1000.0,-1000.0,0.0
2024-06-05T16:33:23.306993,-423.828125,-417.96875,64.453125,159.66796875,0.0
2024-06-05T16:33:23.310843,-1000.0,-1000.0,-767.578125,-764.16015625,0.0
2024-06-05T16:33:23.314692,-32.71484375,-93.75,195.3125,187.98828125,0.0
2024-06-05T16:33:23.318540,-800.78125,-808.59375,-1000.0,-1000.0,0.0
2024-06-05T16:33:23.322389,106.4453125,151.3671875,-273.4375,-267.578125,0.0
2024-06-05T16:33:23.326238,-1000.0,-1000.0,-806.640625,-805.17578125,0.0
2024-06-05T16:33:23.330087,-250.9765625,-254.8828125,333.984375,231.4453125,0.0
2024-06-05T16:33:23.333936,-820.80078125,-818.359375,-1000.0,-1000.0,0.0
2024-06-05T16:33:23.337785,239.74609375,238.76953125,-459.9609375,-369.140625,0.0
2024-06-05T16:33:23.342278,-1000.0,-1000.0,-925.29296875,-879.8828125,0.0
2024-06-05T16:33:23.346128,-562.01171875,-583.984375,761.23046875,671.38671875,0.0
2024-06-05T16:33:23.349977,-950.1953125,-963.37890625,-830.078125,-953.61328125,0.0
2024-06-05T16:33:23.353827,603.515625,612.79296875,-949.70703125,-812.98828125,0.0
2024-06-05T16:33:23.357676,-971.6796875,-952.63671875,565.91796875,731.93359375,0.0
2024-06-05T16:33:23.361526,-1000.0,-1000.0,-825.1953125,-858.3984375,0.0
2024-06-05T16:33:23.365375,405.76171875,333.49609375,-93.26171875,-168.9453125,0.0
2024-06-05T16:33:23.369224,-851.07421875,-849.12109375,-1000.0,-1000.0,0.0
2024-06-05T16:33:23.373074,-231.4453125,-225.09765625,-48.828125,46.875,0.0
2024-06-05T16:33:23.376923,-1000.0,-1000.0,-775.390625,-767.08984375,0.0
2024-06-05T16:33:23.380773,-158.69140625,-208.49609375,205.56640625,196.2890625,0.0
2024-06-05T16:33:23.384622,-811.5234375,-824.21875,-1000.0,-1000.0,0.0
2024-06-05T16:33:23.389066,222.65625,229.98046875,-275.87890625,-273.4375,0.0
2024-06-05T16:33:23.392915,-1000.0,-1000.0,-813.4765625,-807.6171875,0.0
2024-06-05T16:33:23.396765,-263.18359375,-265.625,432.6171875,334.9609375,0.0
2024-06-05T16:33:23.400615,-815.4296875,-813.4765625,-1000.0,-1000.0,0.0
2024-06-05T16:33:23.404465,236.81640625,302.734375,-562.01171875,-471.19140625,0.0
2024-06-05T16:33:23.408315,-1000.0,-1000.0,-999.51171875,-946.2890625,0.0
2024-06-05T16:33:23.412165,-642.578125,-656.25,895.99609375,815.4296875,0.0
2024-06-05T16:33:23.416015,968.75,973.14453125,-631.34765625,-764.6484375,0.0
2024-06-05T16:33:23.419865,747.55859375,739.74609375,-1000.0,-956.54296875,0.0
2024-06-05T16:33:23.423715,-807.6171875,-800.78125,385.25390625,562.98828125,0.0
2024-06-05T16:33:23.427565,-1000.0,-1000.0,-792.96875,-818.84765625,0.0
2024-06-05T16:33:23.431414,216.796875,154.78515625,23.4375,-55.6640625,0.0
2024-06-05T16:33:23.435810,-815.91796875,-819.82421875,-1000.0,-1000.0,0.0
2024-06-05T16:33:23.439660,-120.60546875,-114.74609375,-168.9453125,-71.77734375,0.0
2024-06-05T16:33:23.443511,-1000.0,-1000.0,-790.52734375,-776.85546875,0.0
2024-06-05T16:33:23.447361,-229.98046875,-229.4921875,217.28515625,207.03125,0.0
2024-06-05T16:33:23.451211,-827.1484375,-827.1484375,-1000.0,-1000.0,0.0
2024-06-05T16:33:23.455061,237.3046875,237.3046875,-275.390625,-275.390625,0.0
2024-06-05T16:33:23.458912,-1000.0,-1000.0,-823.2421875,-813.96484375,0.0
2024-06-05T16:33:23.462762,-367.1875,-369.62890625,525.87890625,433.10546875,0.0
2024-06-05T16:33:23.466613,-847.16796875,-848.14453125,-1000.0,-1000.0,0.0
2024-06-05T16:33:23.470463,343.26171875,400.87890625,-655.76171875,-568.359375,0.0
2024-06-05T16:33:23.474313,-1000.0,-1000.0,918.9453125,978.515625,0.0
2024-06-05T16:33:23.478163,-783.203125,-827.63671875,-983.88671875,949.21875,0.0
2024-06-05T16:33:23.482881,791.015625,754.39453125,-417.96875,-553.7109375,0.0
2024-06-05T16:33:23.486732,904.296875,903.80859375,-1000.0,-1000.0,0.0
2024-06-05T16:33:23.490583,-626.46484375,-620.60546875,192.87109375,381.34765625,0.0
2024-06-05T16:33:23.494434,-1000.0,-1000.0,-769.53125,-786.62109375,0.0
2024-06-05T16:33:23.498285,106.93359375,41.015625,141.11328125,62.01171875,0.0
2024-06-05T16:33:23.502136,-800.78125,-807.12890625,-1000.0,-1000.0,0.0
2024-06-05T16:33:23.505987,-9.765625,11.71875,-261.71875,-193.359375,0.0
2024-06-05T16:33:23.509838,-1000.0,-1000.0,-807.12890625,-792.96875,0.0
2024-06-05T16:33:23.513689,-240.234375,-241.2109375,230.46875,219.7265625,0.0
2024-06-05T16:33:23.517540,-824.70703125,-823.2421875,-1000.0,-1000.0,0.0
2024-06-05T16:33:23.521391,239.74609375,239.74609375,-340.8203125,-274.90234375,0.0
2024-06-05T16:33:23.525242,-1000.0,-1000.0,-856.93359375,-823.73046875,0.0
2024-06-05T16:33:23.529903,-467.7734375,-468.75,616.2109375,525.390625,0.0
2024-06-05T16:33:23.533755,-891.6015625,-893.5546875,-1000.0,-1000.0,0.0
2024-06-05T16:33:23.537606,462.890625,508.7890625,-796.875,-661.1328125,0.0
2024-06-05T16:33:23.541458,-1000.0,-1000.0,750.9765625,899.90234375,0.0
2024-06-05T16:33:23.545310,-912.109375,-971.19140625,-876.46484375,-946.2890625,0.0
2024-06-05T16:33:23.549161,600.5859375,534.66796875,-236.81640625,-352.05078125,0.0
2024-06-05T16:33:23.553013,-955.56640625,-962.40234375,-1000.0,-1000.0,0.0
2024-06-05T16:33:23.556864,-426.7578125,-433.10546875,82.51953125,186.5234375,0.0
2024-06-05T16:33:23.560716,-1000.0,-1000.0,-766.6015625,-764.6484375,0.0
2024-06-05T16:33:23.564568,-5.859375,-84.47265625,193.84765625,172.8515625,0.0
2024-06-05T16:33:23.568419,-795.8984375,-807.6171875,-1000.0,-1000.0,0.0
2024-06-05T16:33:23.572271,103.515625,146.97265625,-272.94921875,-266.11328125,0.0
2024-06-05T16:33:23.576878,-1000.0,-1000.0,-806.640625,-805.6640625,0.0
2024-06-05T16:33:23.580730,-251.46484375,-254.8828125,323.2421875,230.95703125,0.0
2024-06-05T16:33:23.584582,-820.80078125,-817.87109375,-1000.0,-1000.0,0.0
2024-06-05T16:33:23.588434,239.74609375,238.76953125,-456.0546875,-362.3046875,0.0
2024-06-05T16:33:23.592287,-1000.0,-1000.0,-924.8046875,-864.2578125,0.0
2024-06-05T16:33:23.596139,-562.01171875,-562.01171875,759.765625,619.140625,0.0
2024-06-05T16:33:23.599991,-949.70703125,-950.68359375,-831.0546875,-1000.0,0.0
2024-06-05T16:33:23.603843,599.609375,617.1875,-950.1953125,-804.6875,0.0
2024-06-05T16:33:23.607695,-974.12109375,-949.70703125,567.3828125,732.91015625,0.0
2024-06-05T16:33:23.611547,-1000.0,-1000.0,-827.1484375,-863.76953125,0.0
2024-06-05T16:33:23.615400,405.2734375,350.5859375,-109.86328125,-196.2890625,0.0
2024-06-05T16:33:23.619252,-849.12109375,-848.6328125,-1000.0,-1000.0,0.0
2024-06-05T16:33:23.623807,-234.375,-223.14453125,-30.2734375,74.21875,0.0
2024-06-05T16:33:23.627660,-1000.0,-1000.0,-772.94921875,-765.13671875,0.0
2024-06-05T16:33:23.631512,-121.09375,-193.84765625,203.61328125,193.84765625,0.0
2024-06-05T16:33:23.635365,-801.26953125,-819.82421875,-1000.0,-1000.0,0.0
2024-06-05T16:33:23.639218,217.28515625,228.02734375,-275.87890625,-273.4375,0.0
2024-06-05T16:33:23.643070,-1000.0,-1000.0,-812.98828125,-807.12890625,0.0
2024-06-05T16:33:23.646923,-264.16015625,-265.13671875,428.7109375,333.984375,0.0
2024-06-05T16:33:23.650776,-815.4296875,-813.96484375,-1000.0,-1000.0,0.0
2024-06-05T16:33:23.654628,236.81640625,281.73828125,-545.41015625,-459.9609375,0.0
2024-06-05T16:33:23.658481,-1000.0,-1000.0,-989.2578125,-932.12890625,0.0
2024-06-05T16:33:23.662334,-647.4609375,-663.0859375,886.23046875,783.69140625,0.0
2024-06-05T16:33:23.666186,986.328125,964.84375,-644.53125,-801.26953125,0.0
2024-06-05T16:33:23.670691,671.38671875,728.02734375,-1000.0,-952.1484375,0.0
2024-06-05T16:33:23.674545,-890.625,-819.82421875,401.85546875,562.98828125,0.0
2024-06-05T16:33:23.678398,-1000.0,-1000.0,-795.8984375,-819.3359375,0.0
2024-06-05T16:33:23.682251,213.8671875,169.43359375,2.9296875,-70.80078125,0.0
2024-06-05T16:33:23.686104,-816.40625,-823.2421875,-1000.0,-1000.0,0.0
2024-06-05T16:33:23.689957,-120.60546875,-130.859375,-144.04296875,-35.64453125,0.0
2024-06-05T16:33:23.693810,-1000.0,-1000.0,-785.64453125,-770.99609375,0.0
2024-06-05T16:33:23.697664,-229.98046875,-228.515625,214.84375,203.125,0.0
2024-06-05T16:33:23.701517,-827.1484375,-827.63671875,-1000.0,-1000.0,0.0
2024-06-05T16:33:23.705370,237.3046875,237.79296875,-275.87890625,-276.3671875,0.0
2024-06-05T16:33:23.709223,-1000.0,-1000.0,-822.75390625,-813.96484375,0.0
2024-06-05T16:33:23.713076,-367.1875,-368.65234375,520.5078125,432.6171875,0.0
2024-06-05T16:33:23.717533,-847.16796875,-847.65625,-1000.0,-1000.0,0.0
2024-06-05T16:33:23.721386,343.26171875,379.39453125,-644.53125,-561.5234375,0.0
2024-06-05T16:33:23.725240,-1000.0,-1000.0,931.15234375,992.1875,0.0
2024-06-05T16:33:23.729094,-787.59765625,-806.15234375,-999.51171875,918.9453125,0.0
2024-06-05T16:33:23.732947,804.6875,773.4375,-443.84765625,-596.19140625,0.0
2024-06-05T16:33:23.736801,854.4921875,905.2734375,-1000.0,-1000.0,0.0
2024-06-05T16:33:23.740654,-691.40625,-617.1875,199.21875,382.32421875,0.0
2024-06-05T16:33:23.744508,-1000.0,-1000.0,-771.97265625,-788.0859375,0.0
2024-06-05T16:33:23.748362,105.95703125,54.6875,119.62890625,48.33984375,0.0
2024-06-05T16:33:23.752215,-801.7578125,-809.08203125,-1000.0,-1000.0,0.0
2024-06-05T16:33:23.756069,-9.765625,-12.20703125,-258.7890625,-165.52734375,0.0
2024-06-05T16:33:23.759923,-1000.0,-1000.0,-807.6171875,-786.62109375,0.0
2024-06-05T16:33:23.764333,-240.234375,-238.28125,229.98046875,215.8203125,0.0
2024-06-05T16:33:23.768187,-824.70703125,-824.70703125,-1000.0,-1000.0,0.0
2024-06-05T16:33:23.772041,239.74609375,240.234375,-320.80078125,-275.87890625,0.0
2024-06-05T16:33:23.775895,-1000.0,-1000.0,-850.09765625,-823.2421875,0.0
2024-06-05T16:33:23.779749,-467.28515625,-468.75,614.2578125,525.87890625,0.0
2024-06-05T16:33:23.783602,-890.13671875,-893.5546875,-1000.0,-1000.0,0.0
2024-06-05T16:33:23.787457,445.80078125,509.765625,-780.76171875,-658.69140625,0.0
2024-06-05T16:33:23.791311,-1000.0,-1000.0,773.4375,909.1796875,0.0
2024-06-05T16:33:23.795165,-913.0859375,-956.54296875,-884.765625,-964.35546875,0.0
2024-06-05T16:33:23.799019,611.81640625,562.01171875,-253.41796875,-384.765625,0.0
2024-06-05T16:33:23.802872,-995.1171875,-974.609375,-1000.0,-1000.0,0.0
2024-06-05T16:33:23.806726,-488.76953125,-451.171875,83.984375,189.94140625,0.0
2024-06-05T16:33:23.811088,-1000.0,-1000.0,-768.06640625,-766.6015625,0.0
2024-06-05T16:33:23.814942,-5.859375,-67.3828125,193.84765625,163.57421875,0.0
2024-06-05T16:33:23.818796,-797.36328125,-807.6171875,-1000.0,-1000.0,0.0
2024-06-05T16:33:23.822651,103.515625,111.328125,-271.97265625,-264.6484375,0.0
2024-06-05T16:33:23.826505,-1000.0,-1000.0,-805.6640625,-805.17578125,0.0
2024-06-05T16:33:23.830359,-251.46484375,-250.0,308.59375,229.98046875,0.0
2024-06-05T16:33:23.834214,-821.2890625,-820.3125,-1000.0,-1000.0,0.0
2024-06-05T16:33:23.838068,239.74609375,239.74609375,-427.734375,-344.7265625,0.0
2024-06-05T16:33:23.841923,-1000.0,-1000.0,-915.0390625,-858.3984375,0.0
2024-06-05T16:33:23.845777,-562.01171875,-562.01171875,757.8125,616.2109375,0.0
2024-06-05T16:33:23.849631,-942.87109375,-948.73046875,-833.984375,-1000.0,0.0
2024-06-05T16:33:23.853486,543.9453125,602.05078125,-931.15234375,-806.15234375,0.0
2024-06-05T16:33:23.858154,-1000.0,-967.28515625,600.09765625,734.86328125,0.0
2024-06-05T16:33:23.862009,-1000.0,-1000.0,-836.9140625,-866.69921875,0.0
2024-06-05T16:33:23.865864,409.1796875,390.13671875,-138.18359375,-209.9609375,0.0
2024-06-05T16:33:23.869719,-871.58203125,-863.28125,-1000.0,-1000.0,0.0
2024-06-05T16:33:23.873574,-279.296875,-254.8828125,-27.34375,80.56640625,0.0
2024-06-05T16:33:23.877429,-1000.0,-1000.0,-774.90234375,-765.13671875,0.0
2024-06-05T16:33:23.881284,-120.1171875,-166.9921875,203.61328125,193.359375,0.0
2024-06-05T16:33:23.885139,-803.22265625,-814.94140625,-1000.0,-1000.0,0.0
2024-06-05T16:33:23.888994,217.28515625,216.30859375,-275.390625,-273.4375,0.0
2024-06-05T16:33:23.892849,-1000.0,-1000.0,-812.01171875,-806.640625,0.0
2024-06-05T16:33:23.896704,-264.16015625,-263.671875,411.62109375,333.49609375,0.0
2024-06-05T16:33:23.900558,-815.4296875,-814.94140625,-1000.0,-1000.0,0.0
2024-06-05T16:33:23.905169,236.81640625,273.92578125,-531.73828125,-452.1484375,0.0
2024-06-05T16:33:23.909024,-1000.0,-1000.0,-985.3515625,-921.38671875,0.0
2024-06-05T16:33:23.912880,-649.90234375,-649.90234375,885.25390625,758.7890625,0.0
2024-06-05T16:33:23.916735,994.140625,978.02734375,-645.01953125,-830.56640625,0.0
2024-06-05T16:33:23.920590,636.23046875,722.16796875,-1000.0,-949.70703125,0.0
2024-06-05T16:33:23.924446,-928.22265625,-827.63671875,413.57421875,565.91796875,0.0
2024-06-05T16:33:23.928301,-1000.0,-1000.0,-800.78125,-824.70703125,0.0
2024-06-05T16:33:23.932157,213.37890625,191.40625,-25.87890625,-97.65625,0.0
2024-06-05T16:33:23.936012,-819.82421875,-821.77734375,-1000.0,-1000.0,0.0
2024-06-05T16:33:23.939868,-130.859375,-133.30078125,-140.625,-31.73828125,0.0
2024-06-05T16:33:23.943723,-1000.0,-1000.0,-787.59765625,-772.4609375,0.0
2024-06-05T16:33:23.947579,-229.4921875,-228.515625,215.33203125,203.61328125,0.0
2024-06-05T16:33:23.952128,-825.68359375,-827.1484375,-1000.0,-1000.0,0.0
2024-06-05T16:33:23.955984,234.375,236.81640625,-275.87890625,-275.87890625,0.0
2024-06-05T16:33:23.959840,-1000.0,-1000.0,-821.2890625,-813.4765625,0.0
2024-06-05T16:33:23.963696,-323.73046875,-356.4453125,508.30078125,432.6171875,0.0
2024-06-05T16:33:23.967551,-832.51953125,-844.23828125,-1000.0,-1000.0,0.0
2024-06-05T16:33:23.971407,336.42578125,400.390625,-631.34765625,-558.59375,0.0
2024-06-05T16:33:23.975263,-1000.0,-1000.0,936.5234375,-995.1171875,0.0
2024-06-05T16:33:23.979119,-792.48046875,-796.38671875,999.51171875,887.20703125,0.0
2024-06-05T16:33:23.982975,815.91796875,803.7109375,-445.3125,-642.578125,0.0
2024-06-05T16:33:23.986831,812.98828125,876.953125,-1000.0,-1000.0,0.0
2024-06-05T16:33:23.990687,-746.09375,-654.78515625,215.33203125,385.25390625,0.0
2024-06-05T16:33:23.994543,-1000.0,-1000.0,-774.90234375,-791.9921875,0.0
2024-06-05T16:33:23.999044,104.4921875,81.54296875,95.703125,20.99609375,0.0
2024-06-05T16:33:24.002900,-803.22265625,-805.6640625,-1000.0,-1000.0,0.0
2024-06-05T16:33:24.006757,-9.765625,-14.16015625,-255.37109375,-148.4375,0.0
2024-06-05T16:33:24.010613,-1000.0,-1000.0,-808.59375,-785.15625,0.0
2024-06-05T16:33:24.014469,-240.234375,-238.76953125,229.4921875,214.35546875,0.0
2024-06-05T16:33:24.018326,-823.2421875,-824.70703125,-1000.0,-1000.0,0.0
2024-06-05T16:33:24.022182,238.28125,239.74609375,-309.08203125,-275.87890625,0.0
2024-06-05T16:33:24.026038,-1000.0,-1000.0,-844.23828125,-823.2421875,0.0
2024-06-05T16:33:24.029895,-436.03515625,-459.9609375,597.16796875,525.87890625,0.0
2024-06-05T16:33:24.033751,-876.46484375,-889.6484375,-1000.0,-1000.0,0.0
2024-06-05T16:33:24.037608,439.94140625,495.1171875,-767.578125,-659.66796875,0.0
2024-06-05T16:33:24.041464,-1000.0,-1000.0,782.71484375,922.8515625,0.0
2024-06-05T16:33:24.045918,-917.48046875,-921.875,-885.7421875,-997.0703125,0.0
2024-06-05T16:33:24.049775,618.65234375,610.83984375,-251.953125,-439.94140625,0.0
2024-06-05T16:33:24.053632,983.3984375,-978.02734375,-1000.0,-1000.0,0.0
2024-06-05T16:33:24.057489,-550.29296875,-481.4453125,109.375,229.98046875,0.0
2024-06-05T16:33:24.061345,-1000.0,-1000.0,-823.2421875,-875.0,0.0
2024-06-05T16:33:24.065202,82.03125,39.55078125,105.46875,-41.50390625,0.0
2024-06-05T16:33:24.069059,-809.5703125,-814.453125,-1000.0,-1000.0,0.0
2024-06-05T16:33:24.072916,103.515625,119.140625,-271.484375,-259.765625,0.0
2024-06-05T16:33:24.076773,-1000.0,-1000.0,-808.10546875,-812.01171875,0.0
2024-06-05T16:33:24.080629,-251.46484375,-251.953125,292.48046875,229.98046875,0.0
2024-06-05T16:33:24.084486,-820.3125,-819.3359375,-1000.0,-1000.0,0.0
2024-06-05T16:33:24.088343,239.2578125,239.74609375,-411.1328125,-329.58984375,0.0
2024-06-05T16:33:24.092752,-1000.0,-1000.0,-905.76171875,-853.02734375,0.0
2024-06-05T16:33:24.096610,-550.29296875,-562.01171875,741.2109375,614.74609375,0.0
2024-06-05T16:33:24.100467,-936.5234375,-947.75390625,-853.515625,-1000.0,0.0
2024-06-05T16:33:24.104324,541.50390625,588.8671875,-914.55078125,-794.43359375,0.0
2024-06-05T16:33:24.108181,-1000.0,-980.46875,618.1640625,754.39453125,0.0
2024-06-05T16:33:24.112038,-1000.0,-1000.0,-840.33203125,-877.9296875,0.0
2024-06-05T16:33:24.115896,418.45703125,409.66796875,-144.04296875,-239.74609375,0.0
2024-06-05T16:33:24.119753,-898.4375,-863.28125,-1000.0,-1000.0,0.0
2024-06-05T16:33:24.123610,-329.1015625,-255.859375,-19.53125,83.0078125,0.0
2024-06-05T16:33:24.127467,-1000.0,-1000.0,-774.4140625,-767.08984375,0.0
2024-06-05T16:33:24.131324,-118.65234375,-154.78515625,203.125,193.84765625,0.0
2024-06-05T16:33:24.135181,-805.17578125,-811.03515625,-1000.0,-1000.0,0.0
2024-06-05T16:33:24.139547,217.28515625,222.16796875,-274.90234375,-273.4375,0.0
2024-06-05T16:33:24.143405,-1000.0,-1000.0,-811.03515625,-805.6640625,0.0
2024-06-05T16:33:24.147263,-264.16015625,-264.6484375,397.94921875,333.0078125,0.0
2024-06-05T16:33:24.151120,-815.4296875,-814.453125,-1000.0,-1000.0,0.0
2024-06-05T16:33:24.154978,236.81640625,259.27734375,-517.08984375,-438.4765625,0.0
2024-06-05T16:33:24.158835,-1000.0,-1000.0,-976.07421875,-915.52734375,0.0
2024-06-05T16:33:24.162693,-649.90234375,-643.06640625,872.55859375,756.8359375,0.0
2024-06-05T16:33:24.166550,994.140625,987.79296875,-662.59765625,-831.54296875,0.0
2024-06-05T16:33:24.170408,636.23046875,692.3828125,-1000.0,-943.359375,0.0
2024-06-05T16:33:24.174265,-927.24609375,-864.2578125,431.15234375,580.078125,0.0
2024-06-05T16:33:24.178123,-1000.0,-1000.0,-803.7109375,-831.0546875,0.0
2024-06-05T16:33:24.181980,218.75,218.75,-30.76171875,-122.0703125,0.0
2024-06-05T16:33:24.186304,-829.58984375,-823.2421875,-1000.0,-1000.0,0.0
2024-06-05T16:33:24.190162,-167.48046875,-147.4609375,-140.13671875,-28.80859375,0.0
2024-06-05T16:33:24.194020,-1000.0,-1000.0,-788.0859375,-773.92578125,0.0
2024-06-05T16:33:24.197878,-226.5625,-227.5390625,215.33203125,203.61328125,0.0
2024-06-05T16:33:24.201736,-825.68359375,-827.63671875,-1000.0,-1000.0,0.0
2024-06-05T16:33:24.205593,231.93359375,236.328125,-275.390625,-276.3671875,0.0
2024-06-05T16:33:24.209451,-1000.0,-1000.0,-820.3125,-812.98828125,0.0
2024-06-05T16:33:24.213309,-278.3203125,-351.07421875,497.55859375,432.12890625,0.0
2024-06-05T16:33:24.217167,-816.89453125,-841.796875,-1000.0,-1000.0,0.0
2024-06-05T16:33:24.221025,328.61328125,369.140625,-615.72265625,-541.50390625,0.0
2024-06-05T16:33:24.224883,-1000.0,-1000.0,943.84765625,-986.328125,0.0
2024-06-05T16:33:24.228740,-795.41015625,-791.9921875,998.046875,884.27734375,0.0
2024-06-05T16:33:24.233350,821.2890625,804.6875,-448.2421875,-641.11328125,0.0
2024-06-05T16:33:24.237208,793.45703125,863.76953125,-1000.0,-1000.0,0.0
2024-06-05T16:33:24.241066,-770.5078125,-675.78125,236.81640625,389.16015625,0.0
2024-06-05T16:33:24.244925,-1000.0,-1000.0,-776.85546875,-794.921875,0.0
2024-06-05T16:33:24.248783,108.3984375,92.28515625,83.49609375,-1.953125,0.0
2024-06-05T16:33:24.252641,-809.5703125,-804.6875,-1000.0,-1000.0,0.0
2024-06-05T16:33:24.256500,-41.015625,-14.6484375,-253.41796875,-143.5546875,0.0
2024-06-05T16:33:24.260358,-1000.0,-1000.0,-808.59375,-786.1328125,0.0
2024-06-05T16:33:24.264216,-236.81640625,-239.2578125,228.515625,214.84375,0.0
2024-06-05T16:33:24.268075,-824.21875,-824.21875,-1000.0,-1000.0,0.0
2024-06-05T16:33:24.271933,237.3046875,239.74609375,-288.0859375,-275.87890625,0.0
2024-06-05T16:33:24.275791,-1000.0,-1000.0,-835.9375,-822.75390625,0.0
2024-06-05T16:33:24.280352,-395.99609375,-455.078125,586.42578125,525.87890625,0.0
2024-06-05T16:33:24.284211,-859.375,-886.23046875,-1000.0,-1000.0,0.0
2024-06-05T16:33:24.288070,432.6171875,471.19140625,-738.28125,-641.6015625,0.0
2024-06-05T16:33:24.291929,-1000.0,-1000.0,812.5,934.08203125,0.0
2024-06-05T16:33:24.295788,-923.33984375,-918.9453125,-890.625,999.0234375,0.0
2024-06-05T16:33:24.299646,633.7890625,614.74609375,-254.39453125,-442.3828125,0.0
2024-06-05T16:33:24.303505,932.6171875,-998.046875,-1000.0,-1000.0,0.0
2024-06-05T16:33:24.307364,-599.12109375,-484.86328125,103.02734375,195.3125,0.0
2024-06-05T16:33:24.311223,-1000.0,-1000.0,-766.6015625,-771.97265625,0.0
2024-06-05T16:33:24.315081,-2.9296875,-41.015625,192.3828125,118.65234375,0.0
2024-06-05T16:33:24.318940,-803.7109375,-805.6640625,-1000.0,-1000.0,0.0
2024-06-05T16:33:24.322799,79.1015625,94.7265625,-270.01953125,-258.30078125,0.0
2024-06-05T16:33:24.327313,-1000.0,-1000.0,-805.17578125,-806.640625,0.0
2024-06-05T16:33:24.331173,-248.53515625,-249.0234375,276.3671875,228.515625,0.0
2024-06-05T16:33:24.335032,-820.3125,-820.3125,-1000.0,-1000.0,0.0
2024-06-05T16:33:24.338891,239.2578125,239.74609375,-389.16015625,-302.734375,0.0
2024-06-05T16:33:24.342750,-1000.0,-1000.0,-895.5078125,-844.23828125,0.0
2024-06-05T16:33:24.346609,-506.34765625,-541.015625,724.609375,611.81640625,0.0
2024-06-05T16:33:24.350469,-913.0859375,-937.01171875,-873.53515625,-1000.0,0.0
2024-06-05T16:33:24.354328,532.71484375,583.49609375,-891.6015625,-771.97265625,0.0
2024-06-05T16:33:24.358187,-1000.0,-978.515625,643.5546875,783.203125,0.0
2024-06-05T16:33:24.362046,-1000.0,-1000.0,-843.75,-886.71875,0.0
2024-06-05T16:33:24.365906,435.05859375,417.48046875,-144.53125,-252.9296875,0.0
2024-06-05T16:33:24.369765,-944.82421875,-885.25390625,-1000.0,-1000.0,0.0
2024-06-05T16:33:24.374234,-416.50390625,-298.33984375,-8.7890625,83.984375,0.0
2024-06-05T16:33:24.378093,-1000.0,-1000.0,-772.94921875,-768.06640625,0.0
2024-06-05T16:33:24.381953,-115.234375,-144.04296875,202.1484375,193.84765625,0.0
2024-06-05T16:33:24.385813,-809.08203125,-811.03515625,-1000.0,-1000.0,0.0
2024-06-05T16:33:24.389672,200.68359375,208.984375,-274.4140625,-272.4609375,0.0
