timestamp,TP9,AF7,AF8,TP10
2024-06-05T16:29:44.546350,0.0,0.0,-0.48828125,-0.48828125,0.0
2024-06-05T16:29:44.550210,0.0,0.0,-0.48828125,-0.48828125,0.0
2024-06-05T16:29:44.554070,-36.1328125,-34.1796875,30.76171875,31.25,0.0
2024-06-05T16:29:44.557929,89.84375,82.51953125,-67.3828125,-73.2421875,0.0
2024-06-05T16:29:44.561789,-357.91015625,-350.09765625,319.3359375,327.1484375,0.0
2024-06-05T16:29:44.565648,-1000.0,-1000.0,-863.28125,-864.2578125,0.0
2024-06-05T16:29:44.569508,84.9609375,-38.57421875,240.234375,130.859375,0.0
2024-06-05T16:29:44.573367,-846.6796875,-800.29296875,-1000.0,-1000.0,0.0
2024-06-05T16:29:44.577227,-264.6484375,-73.73046875,-276.85546875,-149.4140625,0.0
2024-06-05T16:29:44.581087,-1000.0,-1000.0,-821.2890625,-780.76171875,0.0
2024-06-05T16:29:44.584946,-220.21484375,-231.4453125,525.87890625,213.37890625,0.0
2024-06-05T16:29:44.588806,-835.44921875,-829.58984375,-1000.0,-1000.0,0.0
2024-06-05T16:29:44.591900,237.79296875,241.2109375,-580.56640625,-275.87890625,0.0
2024-06-05T16:29:44.595695,-1000.0,-1000.0,969.7265625,-834.47265625,0.0
2024-06-05T16:29:44.599491,-360.83984375,-486.328125,999.0234375,613.76953125,0.0
2024-06-05T16:29:44.603287,-847.16796875,-896.484375,-468.26171875,-1000.0,0.0
2024-06-05T16:29:44.607083,233.88671875,438.4765625,-1000.0,-672.8515625,0.0
2024-06-05T16:29:44.610879,-1000.0,-1000.0,356.93359375,890.13671875,0.0
2024-06-05T16:29:44.614674,-895.5078125,-1000.0,-780.76171875,-899.90234375,0.0
2024-06-05T16:29:44.618470,689.453125,485.3515625,115.72265625,-263.18359375,0.0
2024-06-05T16:29:44.622266,719.23828125,943.359375,-1000.0,-1000.0,0.0
2024-06-05T16:29:44.626062,-858.88671875,-588.37890625,-234.86328125,185.546875,0.0
2024-06-05T16:29:44.629858,-1000.0,-1000.0,-798.33984375,-760.7421875,0.0
2024-06-05T16:29:44.633653,10.25390625,-104.98046875,223.14453125,185.546875,0.0
2024-06-05T16:29:44.636647,-837.40234375,-823.2421875,-1000.0,-1000.0,0.0
2024-06-05T16:29:44.640410,-101.5625,88.37890625,-273.92578125,-272.94921875,0.0
2024-06-05T16:29:44.644172,-1000.0,-1000.0,-834.47265625,-803.22265625,0.0
2024-06-05T16:29:44.647934,-228.02734375,-246.09375,613.76953125,308.10546875,0.0
2024-06-05T16:29:44.651697,-833.0078125,-824.21875,-1000.0,-1000.0,0.0
2024-06-05T16:29:44.655459,241.69921875,240.234375,-670.8984375,-363.76953125,0.0
2024-06-05T16:29:44.659222,-1000.0,-1000.0,888.18359375,-889.6484375,0.0
2024-06-05T16:29:44.662984,-503.90625,-625.9765625,-898.92578125,755.37109375,0.0
2024-06-05T16:29:44.666746,-904.78515625,-979.00390625,-233.3984375,-856.93359375,0.0
2024-06-05T16:29:44.670509,344.23828125,543.45703125,-1000.0,-830.56640625,0.0
2024-06-05T16:29:44.674271,-1000.0,-979.00390625,122.55859375,732.91015625,0.0
2024-06-05T16:29:44.678034,-1000.0,-1000.0,-763.671875,-850.5859375,0.0
2024-06-05T16:29:44.682046,454.58984375,233.3984375,190.4296875,-153.3203125,0.0
2024-06-05T16:29:44.685816,948.2421875,-879.8828125,-1000.0,-1000.0,0.0
2024-06-05T16:29:44.689585,-587.40234375,-293.45703125,-273.92578125,75.68359375,0.0
2024-06-05T16:29:44.693354,-1000.0,-1000.0,-803.22265625,-761.71875,0.0
2024-06-05T16:29:44.697124,-97.16796875,-219.7265625,331.0546875,193.359375,0.0
2024-06-05T16:29:44.700893,-833.49609375,-833.0078125,-1000.0,-1000.0,0.0
2024-06-05T16:29:44.704662,13.671875,235.83984375,-379.8828125,-277.34375,0.0
2024-06-05T16:29:44.708432,-1000.0,-1000.0,-891.11328125,-810.546875,0.0
2024-06-05T16:29:44.712201,-236.81640625,-318.84765625,751.953125,431.15234375,0.0
2024-06-05T16:29:44.715970,-830.56640625,-833.984375,-844.23828125,-1000.0,0.0
2024-06-05T16:29:44.719740,241.69921875,237.3046875,-880.37109375,-482.421875,0.0
2024-06-05T16:29:44.723509,-1000.0,-1000.0,653.80859375,-958.0078125,0.0
2024-06-05T16:29:44.721969,-650.390625,-783.203125,-833.0078125,885.25390625,0.0
2024-06-05T16:29:44.725627,-994.62890625,832.03125,-70.3125,-670.41015625,0.0
2024-06-05T16:29:44.729286,548.33984375,718.26171875,-1000.0,-967.7734375,0.0
2024-06-05T16:29:44.732945,-978.515625,-854.4921875,-30.76171875,560.05859375,0.0
2024-06-05T16:29:44.736603,-1000.0,-1000.0,-770.01953125,-810.546875,0.0
2024-06-05T16:29:44.740262,253.90625,113.76953125,202.63671875,-15.13671875,0.0
2024-06-05T16:29:44.743921,-938.96484375,-823.2421875,-1000.0,-1000.0,0.0
2024-06-05T16:29:44.747580,-402.83203125,-111.81640625,-276.3671875,-78.61328125,0.0
2024-06-05T16:29:44.751238,-1000.0,-1000.0,-811.5234375,-774.4140625,0.0
2024-06-05T16:29:44.754897,-208.984375,-229.4921875,431.640625,207.03125,0.0
2024-06-05T16:29:44.758556,-847.65625,-830.56640625,-1000.0,-1000.0,0.0
2024-06-05T16:29:44.762214,136.71875,241.2109375,-497.0703125,-277.34375,0.0
2024-06-05T16:29:44.763076,-1000.0,-1000.0,-985.83984375,-821.2890625,0.0
2024-06-05T16:29:44.766688,-346.19140625,-456.0546875,938.96484375,525.87890625,0.0
2024-06-05T16:29:44.770300,-856.93359375,-883.30078125,-550.29296875,-1000.0,0.0
2024-06-05T16:29:44.773912,246.58203125,373.53515625,-1000.0,-580.078125,0.0
2024-06-05T16:29:44.777524,-1000.0,-1000.0,403.3203125,969.7265625,0.0
2024-06-05T16:29:44.781137,-786.1328125,-911.1328125,-785.15625,999.0234375,0.0
2024-06-05T16:29:44.784749,845.703125,635.7421875,71.77734375,-468.75,0.0
2024-06-05T16:29:44.788361,657.2265625,909.1796875,-1000.0,-1000.0,0.0
2024-06-05T16:29:44.791973,-917.96875,-629.8828125,-152.34375,352.05078125,0.0
2024-06-05T16:29:44.795585,-1000.0,-1000.0,-780.76171875,-777.83203125,0.0
2024-06-05T16:29:44.799197,125.0,-8.30078125,213.37890625,181.640625,0.0
2024-06-05T16:29:44.802809,-851.07421875,-816.89453125,-1000.0,-1000.0,0.0
2024-06-05T16:29:44.806348,-213.37890625,2.9296875,-275.87890625,-268.5546875,0.0
2024-06-05T16:29:44.809959,-1000.0,-1000.0,-826.66015625,-799.8046875,0.0
2024-06-05T16:29:44.813570,-220.703125,-238.28125,558.59375,225.09765625,0.0
2024-06-05T16:29:44.817182,-837.40234375,-827.63671875,-1000.0,-1000.0,0.0
2024-06-05T16:29:44.820793,241.69921875,242.1875,-638.671875,-273.4375,0.0
2024-06-05T16:29:44.824404,-1000.0,-1000.0,903.80859375,-834.47265625,0.0
2024-06-05T16:29:44.828015,-463.37890625,-561.5234375,-912.59765625,613.76953125,0.0
2024-06-05T16:29:44.831626,-886.71875,-939.94140625,-277.83203125,-1000.0,0.0
2024-06-05T16:29:44.835237,349.12109375,515.625,-1000.0,-666.9921875,0.0
2024-06-05T16:29:44.838848,-1000.0,-1000.0,186.03515625,881.34765625,0.0
2024-06-05T16:29:44.842459,-915.52734375,-1000.0,-761.23046875,-886.71875,0.0
2024-06-05T16:29:44.846070,660.64453125,433.59375,185.546875,-173.828125,0.0
2024-06-05T16:29:44.851882,808.10546875,-947.75390625,-1000.0,-1000.0,0.0
2024-06-05T16:29:44.855520,-756.34765625,-409.66796875,-269.04296875,90.33203125,0.0
2024-06-05T16:29:44.859157,-1000.0,-1000.0,-802.734375,-762.20703125,0.0
2024-06-05T16:29:44.862794,-17.578125,-179.19921875,245.60546875,192.3828125,0.0
2024-06-05T16:29:44.866431,-842.7734375,-833.49609375,-1000.0,-1000.0,0.0
2024-06-05T16:29:44.870069,-97.16796875,126.46484375,-328.125,-273.4375,0.0
2024-06-05T16:29:44.873706,-1000.0,-1000.0,-878.90625,-803.22265625,0.0
2024-06-05T16:29:44.877343,-227.5390625,-247.55859375,726.5625,330.56640625,0.0
2024-06-05T16:29:44.880980,-834.9609375,-822.75390625,-883.30078125,-1000.0,0.0
2024-06-05T16:29:44.884618,242.67578125,239.74609375,-825.68359375,-374.51171875,0.0
2024-06-05T16:29:44.888255,-1000.0,-1000.0,731.93359375,-906.73828125,0.0
2024-06-05T16:29:44.891892,-560.546875,-649.90234375,-850.5859375,807.6171875,0.0
2024-06-05T16:29:44.899520,-935.546875,996.09375,-153.3203125,-761.23046875,0.0
2024-06-05T16:29:44.903199,451.171875,632.32421875,-1000.0,-917.48046875,0.0
2024-06-05T16:29:44.906878,-1000.0,-918.45703125,75.68359375,614.74609375,0.0
2024-06-05T16:29:44.910557,-1000.0,-1000.0,-761.71875,-820.80078125,0.0
2024-06-05T16:29:44.914236,462.890625,172.36328125,193.359375,-40.52734375,0.0
2024-06-05T16:29:44.917915,938.96484375,-847.16796875,-1000.0,-1000.0,0.0
2024-06-05T16:29:44.921593,-580.078125,-216.796875,-276.3671875,-37.59765625,0.0
2024-06-05T16:29:44.925272,-1000.0,-1000.0,-809.5703125,-768.5546875,0.0
2024-06-05T16:29:44.928951,-209.47265625,-221.19140625,400.390625,202.63671875,0.0
2024-06-05T16:29:44.932630,-846.6796875,-832.51953125,-1000.0,-1000.0,0.0
2024-06-05T16:29:44.936309,130.37109375,238.28125,-472.16796875,-276.3671875,0.0
2024-06-05T16:29:44.939988,-1000.0,-1000.0,-958.49609375,-812.98828125,0.0
2024-06-05T16:29:44.949277,-247.0703125,-366.2109375,885.7421875,443.359375,0.0
2024-06-05T16:29:44.953008,-823.2421875,-846.19140625,-669.921875,-1000.0,0.0
2024-06-05T16:29:44.956739,239.2578125,329.58984375,-969.7265625,-504.8828125,0.0
2024-06-05T16:29:44.960470,-1000.0,-1000.0,562.5,993.65234375,0.0
2024-06-05T16:29:44.964200,-650.390625,-837.40234375,-812.5,990.72265625,0.0
2024-06-05T16:29:44.967931,-992.1875,762.6953125,-38.57421875,-466.796875,0.0
2024-06-05T16:29:44.971662,540.52734375,796.38671875,-1000.0,-1000.0,0.0
2024-06-05T16:29:44.975393,-966.30859375,-758.7890625,-62.98828125,379.39453125,0.0
2024-06-05T16:29:44.979124,-1000.0,-1000.0,-773.4375,-780.2734375,0.0
2024-06-05T16:29:44.982854,129.39453125,19.04296875,205.56640625,71.77734375,0.0
2024-06-05T16:29:44.986585,-880.37109375,-830.56640625,-1000.0,-1000.0,0.0
2024-06-05T16:29:44.990316,-270.99609375,-77.63671875,-277.34375,-152.34375,0.0
2024-06-05T16:29:44.993387,-1000.0,-1000.0,-821.2890625,-780.76171875,0.0
2024-06-05T16:29:44.997112,-219.7265625,-230.46875,525.87890625,213.37890625,0.0
2024-06-05T16:29:45.000838,-835.44921875,-830.078125,-1000.0,-1000.0,0.0
2024-06-05T16:29:45.004563,238.28125,241.2109375,-580.078125,-275.87890625,0.0
2024-06-05T16:29:45.008288,-1000.0,-1000.0,969.7265625,-834.47265625,0.0
2024-06-05T16:29:45.012013,-360.83984375,-478.515625,999.51171875,613.28125,0.0
2024-06-05T16:29:45.015739,-847.16796875,-893.06640625,-470.21484375,-1000.0,0.0
2024-06-05T16:29:45.019464,235.3515625,437.98828125,-1000.0,-672.36328125,0.0
2024-06-05T16:29:45.023189,-1000.0,-1000.0,369.140625,889.6484375,0.0
2024-06-05T16:29:45.026915,-881.8359375,-1000.0,-781.25,-899.90234375,0.0
2024-06-05T16:29:45.030640,651.3671875,489.2578125,115.72265625,-263.18359375,0.0
2024-06-05T16:29:45.034365,641.6015625,957.51953125,-1000.0,-1000.0,0.0
2024-06-05T16:29:45.035284,-863.76953125,-565.4296875,-230.95703125,185.546875,0.0
2024-06-05T16:29:45.038988,-1000.0,-1000.0,-797.36328125,-760.7421875,0.0
2024-06-05T16:29:45.042691,8.30078125,-104.4921875,222.65625,185.546875,0.0
2024-06-05T16:29:45.046396,-837.40234375,-822.75390625,-1000.0,-1000.0,0.0
2024-06-05T16:29:45.050100,-101.07421875,84.9609375,-273.92578125,-272.4609375,0.0
2024-06-05T16:29:45.053804,-1000.0,-1000.0,-834.47265625,-803.22265625,0.0
2024-06-05T16:29:45.057508,-228.02734375,-245.60546875,613.76953125,305.6640625,0.0
2024-06-05T16:29:45.061212,-832.51953125,-824.21875,-1000.0,-1000.0,0.0
2024-06-05T16:29:45.064916,241.69921875,240.234375,-671.38671875,-364.2578125,0.0
2024-06-05T16:29:45.068620,-1000.0,-1000.0,889.16015625,-890.13671875,0.0
2024-06-05T16:29:45.072324,-499.0234375,-622.55859375,-899.90234375,755.859375,0.0
2024-06-05T16:29:45.076028,-902.34375,-976.5625,-236.81640625,-856.93359375,0.0
2024-06-05T16:29:45.077440,343.26171875,542.96875,-1000.0,-830.56640625,0.0
2024-06-05T16:29:45.081128,-1000.0,-978.02734375,123.53515625,732.91015625,0.0
2024-06-05T16:29:45.084816,-1000.0,-1000.0,-763.671875,-850.5859375,0.0
2024-06-05T16:29:45.088504,454.1015625,235.83984375,190.4296875,-153.3203125,0.0
2024-06-05T16:29:45.092192,947.75390625,-887.20703125,-1000.0,-1000.0,0.0
2024-06-05T16:29:45.095881,-587.40234375,-307.12890625,-273.92578125,75.68359375,0.0
2024-06-05T16:29:45.099569,-1000.0,-1000.0,-803.22265625,-761.71875,0.0
2024-06-05T16:29:45.103257,-97.16796875,-219.23828125,330.56640625,193.359375,0.0
2024-06-05T16:29:45.106945,-833.49609375,-833.49609375,-1000.0,-1000.0,0.0
2024-06-05T16:29:45.110633,13.671875,232.421875,-379.8828125,-277.34375,0.0
2024-06-05T16:29:45.114321,-1000.0,-1000.0,-891.11328125,-811.03515625,0.0
2024-06-05T16:29:45.118009,-236.81640625,-312.5,751.953125,431.15234375,0.0
2024-06-05T16:29:45.119847,-830.56640625,-832.03125,-843.75,-1000.0,0.0
2024-06-05T16:29:45.123523,241.69921875,236.81640625,-881.34765625,-481.93359375,0.0
2024-06-05T16:29:45.127199,-1000.0,-1000.0,653.3203125,-958.0078125,0.0
2024-06-05T16:29:45.130875,-650.390625,-782.71484375,-833.984375,885.25390625,0.0
2024-06-05T16:29:45.134552,-995.1171875,829.1015625,-73.2421875,-670.41015625,0.0
2024-06-05T16:29:45.138228,547.8515625,730.46875,-1000.0,-968.75,0.0
2024-06-05T16:29:45.141904,-978.515625,-840.8203125,-34.1796875,561.03515625,0.0
2024-06-05T16:29:45.145581,-1000.0,-1000.0,-770.5078125,-812.01171875,0.0
2024-06-05T16:29:45.149257,253.90625,116.2109375,203.125,-21.97265625,0.0
2024-06-05T16:29:45.152933,-938.96484375,-826.66015625,-1000.0,-1000.0,0.0
2024-06-05T16:29:45.156609,-403.3203125,-125.0,-276.3671875,-84.9609375,0.0
2024-06-05T16:29:45.160285,-1000.0,-1000.0,-812.01171875,-775.87890625,0.0
2024-06-05T16:29:45.164131,-208.984375,-228.02734375,431.640625,208.0078125,0.0
2024-06-05T16:29:45.167809,-847.16796875,-831.54296875,-1000.0,-1000.0,0.0
2024-06-05T16:29:45.171486,136.71875,241.2109375,-503.90625,-277.34375,0.0
2024-06-05T16:29:45.175163,-1000.0,-1000.0,-989.2578125,-821.2890625,0.0
2024-06-05T16:29:45.178840,-346.19140625,-455.56640625,939.94140625,525.87890625,0.0
2024-06-05T16:29:45.182518,-856.93359375,-882.8125,-550.78125,-1000.0,0.0
2024-06-05T16:29:45.186195,246.58203125,379.39453125,-1000.0,-580.078125,0.0
2024-06-05T16:29:45.189872,-1000.0,-1000.0,402.34375,969.7265625,0.0
2024-06-05T16:29:45.193549,-786.1328125,-912.59765625,-784.66796875,999.0234375,0.0
2024-06-05T16:29:45.197227,845.703125,636.71875,71.77734375,-469.23828125,0.0
2024-06-05T16:29:45.200904,657.2265625,906.73828125,-1000.0,-1000.0,0.0
2024-06-05T16:29:45.204581,-917.96875,-633.30078125,-152.34375,354.4921875,0.0
2024-06-05T16:29:45.208500,-1000.0,-1000.0,-780.76171875,-777.83203125,0.0
2024-06-05T16:29:45.212179,125.0,-9.27734375,213.37890625,181.640625,0.0
2024-06-05T16:29:45.215858,-851.07421875,-816.89453125,-1000.0,-1000.0,0.0
2024-06-05T16:29:45.219536,-213.37890625,3.41796875,-275.87890625,-268.5546875,0.0
2024-06-05T16:29:45.223215,-1000.0,-1000.0,-827.1484375,-799.8046875,0.0
2024-06-05T16:29:45.226893,-221.19140625,-238.28125,560.546875,225.09765625,0.0
2024-06-05T16:29:45.230572,-837.890625,-827.63671875,-1000.0,-1000.0,0.0
2024-06-05T16:29:45.234251,241.69921875,241.69921875,-638.671875,-273.4375,0.0
2024-06-05T16:29:45.237929,-1000.0,-1000.0,903.80859375,-834.47265625,0.0
2024-06-05T16:29:45.241608,-463.37890625,-561.5234375,-911.1328125,613.76953125,0.0
2024-06-05T16:29:45.245286,-887.20703125,-939.94140625,-274.90234375,-1000.0,0.0
2024-06-05T16:29:45.248965,349.12109375,516.11328125,-1000.0,-666.50390625,0.0
2024-06-05T16:29:45.252944,-1000.0,-1000.0,185.546875,880.859375,0.0
2024-06-05T16:29:45.256624,-915.52734375,-1000.0,-760.7421875,-886.23046875,0.0
2024-06-05T16:29:45.260304,660.64453125,433.59375,185.546875,-172.36328125,0.0
2024-06-05T16:29:45.263984,807.6171875,-947.75390625,-1000.0,-1000.0,0.0
2024-06-05T16:29:45.267665,-755.37109375,-409.66796875,-269.04296875,90.8203125,0.0
2024-06-05T16:29:45.271345,-1000.0,-1000.0,-802.24609375,-762.20703125,0.0
2024-06-05T16:29:45.275025,-26.85546875,-178.22265625,249.0234375,192.3828125,0.0
2024-06-05T16:29:45.278705,-844.7265625,-833.49609375,-1000.0,-1000.0,0.0
2024-06-05T16:29:45.282385,-96.19140625,126.46484375,-325.68359375,-273.4375,0.0
2024-06-05T16:29:45.286065,-1000.0,-1000.0,-877.9296875,-803.22265625,0.0
2024-06-05T16:29:45.289746,-227.5390625,-247.55859375,726.5625,330.56640625,0.0
2024-06-05T16:29:45.293426,-834.9609375,-822.75390625,-882.32421875,-1000.0,0.0
2024-06-05T16:29:45.297353,243.1640625,239.74609375,-825.68359375,-374.0234375,0.0
2024-06-05T16:29:45.301034,-1000.0,-1000.0,731.93359375,-909.1796875,0.0
2024-06-05T16:29:45.304716,-560.546875,-649.90234375,-850.5859375,815.4296875,0.0
2024-06-05T16:29:45.308397,-935.546875,996.09375,-153.3203125,-750.48828125,0.0
2024-06-05T16:29:45.312079,451.171875,632.32421875,-1000.0,-918.9453125,0.0
2024-06-05T16:29:45.315760,-1000.0,-918.45703125,75.68359375,615.234375,0.0
2024-06-05T16:29:45.319442,-1000.0,-1000.0,-761.71875,-820.80078125,0.0
2024-06-05T16:29:45.323123,462.40234375,172.36328125,193.359375,-40.52734375,0.0
2024-06-05T16:29:45.326804,938.96484375,-847.16796875,-1000.0,-1000.0,0.0
2024-06-05T16:29:45.330486,-580.078125,-216.796875,-276.3671875,-37.59765625,0.0
2024-06-05T16:29:45.334167,-1000.0,-1000.0,-809.5703125,-768.5546875,0.0
2024-06-05T16:29:45.337848,-209.47265625,-221.19140625,401.3671875,202.63671875,0.0
2024-06-05T16:29:45.341828,-847.16796875,-833.0078125,-1000.0,-1000.0,0.0
2024-06-05T16:29:45.345510,130.37109375,237.79296875,-473.6328125,-276.3671875,0.0
2024-06-05T16:29:45.349193,-1000.0,-1000.0,-958.984375,-813.4765625,0.0
2024-06-05T16:29:45.352876,-247.0703125,-366.2109375,885.7421875,446.2890625,0.0
2024-06-05T16:29:45.356559,-823.2421875,-846.19140625,-669.921875,-1000.0,0.0
2024-06-05T16:29:45.360242,239.2578125,329.58984375,-969.7265625,-514.6484375,0.0
2024-06-05T16:29:45.363924,-1000.0,-1000.0,562.5,989.2578125,0.0
2024-06-05T16:29:45.367607,-650.390625,-838.8671875,-812.5,992.67578125,0.0
2024-06-05T16:29:45.371290,-992.67578125,761.23046875,-38.57421875,-467.7734375,0.0
2024-06-05T16:29:45.374973,540.52734375,796.875,-1000.0,-1000.0,0.0
2024-06-05T16:29:45.378655,-966.796875,-759.27734375,-64.453125,379.39453125,0.0
2024-06-05T16:29:45.382338,-1000.0,-1000.0,-773.92578125,-780.2734375,0.0
2024-06-05T16:29:45.386360,127.9296875,20.01953125,206.0546875,71.77734375,0.0
2024-06-05T16:29:45.390044,-877.9296875,-830.56640625,-1000.0,-1000.0,0.0
2024-06-05T16:29:45.393729,-266.6015625,-77.63671875,-277.34375,-152.34375,0.0
2024-06-05T16:29:45.397413,-1000.0,-1000.0,-821.2890625,-780.76171875,0.0
2024-06-05T16:29:45.401097,-219.7265625,-230.46875,525.87890625,213.37890625,0.0
2024-06-05T16:29:45.404782,-835.44921875,-830.078125,-1000.0,-1000.0,0.0
2024-06-05T16:29:45.408466,237.79296875,241.2109375,-580.078125,-275.87890625,0.0
2024-06-05T16:29:45.412150,-1000.0,-1000.0,969.7265625,-834.47265625,0.0
2024-06-05T16:29:45.415834,-360.83984375,-482.91015625,999.51171875,613.76953125,0.0
2024-06-05T16:29:45.419519,-847.65625,-895.01953125,-469.7265625,-1000.0,0.0
2024-06-05T16:29:45.423203,233.88671875,438.4765625,-1000.0,-672.8515625,0.0
2024-06-05T16:29:45.426887,-1000.0,-1000.0,365.234375,890.13671875,0.0
2024-06-05T16:29:45.430944,-891.6015625,-1000.0,-781.25,-899.90234375,0.0
2024-06-05T16:29:45.434630,695.80078125,490.72265625,115.72265625,-263.18359375,0.0
2024-06-05T16:29:45.438316,714.35546875,951.66015625,-1000.0,-1000.0,0.0
2024-06-05T16:29:45.442001,-863.28125,-574.21875,-233.3984375,185.546875,0.0
2024-06-05T16:29:45.445687,-1000.0,-1000.0,-797.8515625,-760.7421875,0.0
2024-06-05T16:29:45.449373,10.25390625,-105.46875,223.14453125,185.546875,0.0
2024-06-05T16:29:45.453059,-837.40234375,-822.265625,-1000.0,-1000.0,0.0
2024-06-05T16:29:45.456745,-101.07421875,93.75,-273.92578125,-272.94921875,0.0
2024-06-05T16:29:45.460430,-1000.0,-1000.0,-834.47265625,-803.22265625,0.0
2024-06-05T16:29:45.464116,-228.02734375,-246.58203125,613.76953125,308.59375,0.0
2024-06-05T16:29:45.467802,-833.0078125,-823.2421875,-1000.0,-1000.0,0.0
2024-06-05T16:29:45.471488,241.69921875,240.234375,-670.8984375,-365.234375,0.0
2024-06-05T16:29:45.475573,-1000.0,-1000.0,888.18359375,-890.13671875,0.0
2024-06-05T16:29:45.479260,-502.9296875,-624.0234375,-898.4375,755.859375,0.0
2024-06-05T16:29:45.482948,-904.296875,-977.5390625,-231.93359375,-856.93359375,0.0
2024-06-05T16:29:45.486635,344.23828125,542.96875,-1000.0,-830.56640625,0.0
2024-06-05T16:29:45.490323,-1000.0,-978.515625,122.0703125,732.91015625,0.0
2024-06-05T16:29:45.494010,-1000.0,-1000.0,-763.671875,-850.5859375,0.0
2024-06-05T16:29:45.497698,454.1015625,232.421875,190.4296875,-153.3203125,0.0
2024-06-05T16:29:45.501385,948.2421875,-877.44140625,-1000.0,-1000.0,0.0
2024-06-05T16:29:45.505072,-587.40234375,-289.0625,-273.92578125,75.68359375,0.0
2024-06-05T16:29:45.508760,-1000.0,-1000.0,-803.22265625,-761.71875,0.0
2024-06-05T16:29:45.512447,-97.16796875,-219.7265625,331.0546875,193.359375,0.0
2024-06-05T16:29:45.516135,-833.49609375,-833.0078125,-1000.0,-1000.0,0.0
2024-06-05T16:29:45.521533,13.671875,235.3515625,-379.8828125,-277.34375,0.0
2024-06-05T16:29:45.525227,-1000.0,-1000.0,-891.11328125,-810.546875,0.0
2024-06-05T16:29:45.528921,-236.81640625,-314.453125,750.9765625,431.15234375,0.0
2024-06-05T16:29:45.532615,-830.56640625,-832.51953125,-840.8203125,-1000.0,0.0
2024-06-05T16:29:45.536309,241.69921875,236.81640625,-892.08984375,-481.93359375,0.0
2024-06-05T16:29:45.540003,-1000.0,-1000.0,640.13671875,-958.0078125,0.0
2024-06-05T16:29:45.543697,-650.390625,-784.1796875,-833.0078125,885.25390625,0.0
2024-06-05T16:29:45.547391,-995.1171875,834.9609375,-78.61328125,-670.41015625,0.0
2024-06-05T16:29:45.551085,547.8515625,706.0546875,-1000.0,-968.26171875,0.0
2024-06-05T16:29:45.554778,-978.515625,-867.67578125,-33.69140625,560.546875,0.0
2024-06-05T16:29:45.558472,-1000.0,-1000.0,-770.99609375,-811.5234375,0.0
2024-06-05T16:29:45.562166,253.41796875,115.234375,203.125,-17.08984375,0.0
2024-06-05T16:29:45.567436,-938.96484375,-827.1484375,-1000.0,-1000.0,0.0
2024-06-05T16:29:45.571136,-403.3203125,-125.9765625,-276.3671875,-87.40234375,0.0
2024-06-05T16:29:45.574836,-1000.0,-1000.0,-811.5234375,-776.3671875,0.0
2024-06-05T16:29:45.578535,-208.984375,-228.02734375,431.640625,208.0078125,0.0
2024-06-05T16:29:45.582235,-847.16796875,-831.54296875,-1000.0,-1000.0,0.0
2024-06-05T16:29:45.585934,136.71875,241.2109375,-497.0703125,-277.34375,0.0
2024-06-05T16:29:45.589634,-1000.0,-1000.0,-988.28125,-821.2890625,0.0
2024-06-05T16:29:45.593333,-346.19140625,-458.0078125,946.77734375,525.87890625,0.0
2024-06-05T16:29:45.597033,-856.4453125,-884.27734375,-538.57421875,-1000.0,0.0
2024-06-05T16:29:45.600733,246.58203125,373.53515625,-1000.0,-580.078125,0.0
2024-06-05T16:29:45.604432,-1000.0,-1000.0,403.80859375,970.21484375,0.0
2024-06-05T16:29:45.608132,-786.1328125,-911.1328125,-784.66796875,998.046875,0.0
2024-06-05T16:29:45.613285,845.21484375,635.7421875,71.77734375,-467.28515625,0.0
2024-06-05T16:29:45.616990,657.2265625,908.69140625,-1000.0,-1000.0,0.0
2024-06-05T16:29:45.620695,-917.96875,-629.39453125,-152.34375,343.75,0.0
2024-06-05T16:29:45.624399,-1000.0,-1000.0,-780.76171875,-777.34375,0.0
2024-06-05T16:29:45.628104,125.0,-13.671875,213.37890625,182.12890625,0.0
2024-06-05T16:29:45.631809,-851.07421875,-817.3828125,-1000.0,-1000.0,0.0
2024-06-05T16:29:45.635513,-213.37890625,3.41796875,-275.87890625,-268.06640625,0.0
2024-06-05T16:29:45.639218,-1000.0,-1000.0,-827.63671875,-799.8046875,0.0
2024-06-05T16:29:45.642922,-221.19140625,-238.28125,564.94140625,225.09765625,0.0
2024-06-05T16:29:45.646627,-837.890625,-827.63671875,-1000.0,-1000.0,0.0
2024-06-05T16:29:45.650331,241.69921875,242.1875,-638.671875,-273.4375,0.0
2024-06-05T16:29:45.654036,-1000.0,-1000.0,900.87890625,-834.47265625,0.0
2024-06-05T16:29:45.659084,-463.37890625,-561.5234375,-903.80859375,613.76953125,0.0
2024-06-05T16:29:45.662793,-886.71875,-940.4296875,-261.23046875,-1000.0,0.0
2024-06-05T16:29:45.666502,349.609375,522.4609375,-1000.0,-665.52734375,0.0
2024-06-05T16:29:45.670212,-1000.0,-1000.0,185.546875,878.41796875,0.0
2024-06-05T16:29:45.673921,-915.52734375,-1000.0,-760.25390625,-881.8359375,0.0
2024-06-05T16:29:45.677630,660.64453125,434.08203125,185.546875,-156.25,0.0
2024-06-05T16:29:45.681339,807.12890625,-948.2421875,-1000.0,-1000.0,0.0
2024-06-05T16:29:45.685048,-754.39453125,-409.66796875,-270.01953125,91.796875,0.0
2024-06-05T16:29:45.688757,-1000.0,-1000.0,-802.24609375,-761.23046875,0.0
2024-06-05T16:29:45.692466,-37.109375,-180.6640625,262.20703125,191.89453125,0.0
2024-06-05T16:29:45.696175,-846.6796875,-833.984375,-1000.0,-1000.0,0.0
2024-06-05T16:29:45.699884,-94.7265625,126.953125,-327.63671875,-273.92578125,0.0
2024-06-05T16:29:45.704836,-1000.0,-1000.0,-878.41796875,-803.22265625,0.0
2024-06-05T16:29:45.708549,-227.05078125,-247.55859375,732.91015625,331.0546875,0.0
2024-06-05T16:29:45.712263,-834.9609375,-822.75390625,-875.0,-1000.0,0.0
2024-06-05T16:29:45.715976,243.1640625,239.74609375,-827.1484375,-373.046875,0.0
2024-06-05T16:29:45.719689,-1000.0,-1000.0,731.93359375,-910.64453125,0.0
2024-06-05T16:29:45.723402,-560.546875,-649.90234375,-851.07421875,821.2890625,0.0
2024-06-05T16:29:45.727115,-935.546875,996.58203125,-153.3203125,-738.76953125,0.0
2024-06-05T16:29:45.730828,450.68359375,632.32421875,-1000.0,-931.15234375,0.0
2024-06-05T16:29:45.734541,-1000.0,-917.96875,75.68359375,601.07421875,0.0
2024-06-05T16:29:45.738254,-1000.0,-1000.0,-761.71875,-818.359375,0.0
2024-06-05T16:29:45.741967,461.9140625,169.921875,193.359375,-40.52734375,0.0
2024-06-05T16:29:45.745681,939.453125,-847.16796875,-1000.0,-1000.0,0.0
2024-06-05T16:29:45.750546,-580.078125,-216.796875,-276.3671875,-37.59765625,0.0
2024-06-05T16:29:45.754262,-1000.0,-1000.0,-810.05859375,-768.5546875,0.0
2024-06-05T16:29:45.757979,-209.47265625,-221.19140625,406.25,202.63671875,0.0
2024-06-05T16:29:45.761695,-846.6796875,-833.0078125,-1000.0,-1000.0,0.0
2024-06-05T16:29:45.765412,130.859375,238.28125,-477.5390625,-276.85546875,0.0
2024-06-05T16:29:45.769129,-1000.0,-1000.0,-959.9609375,-814.453125,0.0
2024-06-05T16:29:45.772845,-247.0703125,-366.69921875,886.23046875,460.44921875,0.0
2024-06-05T16:29:45.776562,-823.2421875,-845.703125,-670.41015625,-1000.0,0.0
2024-06-05T16:29:45.780279,239.2578125,331.54296875,-969.23828125,-521.484375,0.0
2024-06-05T16:29:45.783995,-1000.0,-1000.0,562.5,988.28125,0.0
2024-06-05T16:29:45.787712,-650.390625,-843.26171875,-812.98828125,992.67578125,0.0
2024-06-05T16:29:45.791429,-992.67578125,755.859375,-38.0859375,-467.7734375,0.0
2024-06-05T16:29:45.796214,540.0390625,796.875,-1000.0,-1000.0,0.0
2024-06-05T16:29:45.799934,-967.28515625,-758.30078125,-68.84765625,379.39453125,0.0
2024-06-05T16:29:45.803654,-1000.0,-1000.0,-774.4140625,-780.2734375,0.0
2024-06-05T16:29:45.807374,121.58203125,11.23046875,206.54296875,71.77734375,0.0
2024-06-05T16:29:45.811094,-859.375,-830.078125,-1000.0,-1000.0,0.0
2024-06-05T16:29:45.814813,-231.93359375,-69.3359375,-277.34375,-152.34375,0.0
2024-06-05T16:29:45.818533,-1000.0,-1000.0,-821.2890625,-780.76171875,0.0
2024-06-05T16:29:45.822253,-220.703125,-231.4453125,525.87890625,213.37890625,0.0
2024-06-05T16:29:45.825973,-833.984375,-829.58984375,-1000.0,-1000.0,0.0
2024-06-05T16:29:45.829693,237.79296875,241.2109375,-580.078125,-275.87890625,0.0
2024-06-05T16:29:45.833412,-1000.0,-1000.0,970.21484375,-834.47265625,0.0
2024-06-05T16:29:45.837132,-360.83984375,-487.79296875,998.046875,613.76953125,0.0
2024-06-05T16:29:45.841854,-847.16796875,-897.4609375,-466.30859375,-1000.0,0.0
2024-06-05T16:29:45.845577,232.91015625,438.96484375,-1000.0,-672.8515625,0.0
2024-06-05T16:29:45.849299,-1000.0,-1000.0,347.65625,889.6484375,0.0
2024-06-05T16:29:45.853022,-906.25,-1000.0,-780.2734375,-899.90234375,0.0
2024-06-05T16:29:45.856745,666.9921875,478.515625,122.55859375,-262.6953125,0.0
2024-06-05T16:29:45.860467,749.51171875,964.84375,-1000.0,-1000.0,0.0
2024-06-05T16:29:45.864190,-829.1015625,-555.17578125,-241.2109375,185.05859375,0.0
2024-06-05T16:29:45.867913,-1000.0,-1000.0,-799.31640625,-760.7421875,0.0
2024-06-05T16:29:45.871636,11.71875,-104.98046875,224.12109375,185.546875,0.0
2024-06-05T16:29:45.875358,-837.40234375,-821.77734375,-1000.0,-1000.0,0.0
2024-06-05T16:29:45.879081,-101.07421875,91.796875,-273.92578125,-273.4375,0.0
2024-06-05T16:29:45.882804,-1000.0,-1000.0,-834.47265625,-803.22265625,0.0
2024-06-05T16:29:45.888515,-228.02734375,-246.09375,613.76953125,319.3359375,0.0
2024-06-05T16:29:45.892243,-833.49609375,-823.73046875,-1000.0,-1000.0,0.0
2024-06-05T16:29:45.895971,242.1875,240.234375,-669.921875,-375.0,0.0
2024-06-05T16:29:45.899699,-1000.0,-1000.0,886.71875,-892.08984375,0.0
2024-06-05T16:29:45.903428,-525.390625,-627.44140625,-895.99609375,756.8359375,0.0
2024-06-05T16:29:45.907156,-916.015625,-980.46875,-220.703125,-857.91015625,0.0
2024-06-05T16:29:45.910884,359.375,548.828125,-1000.0,-830.078125,0.0
2024-06-05T16:29:45.914612,-1000.0,-976.07421875,118.65234375,732.91015625,0.0
2024-06-05T16:29:45.918340,-1000.0,-1000.0,-763.18359375,-850.5859375,0.0
2024-06-05T16:29:45.922069,455.078125,232.421875,190.4296875,-153.3203125,0.0
2024-06-05T16:29:45.925797,947.75390625,-875.9765625,-1000.0,-1000.0,0.0
2024-06-05T16:29:45.929525,-587.40234375,-286.1328125,-273.4375,75.68359375,0.0
2024-06-05T16:29:45.935091,-1000.0,-1000.0,-803.22265625,-761.71875,0.0
2024-06-05T16:29:45.938824,-97.16796875,-220.21484375,331.0546875,192.87109375,0.0
2024-06-05T16:29:45.942557,-833.49609375,-833.49609375,-1000.0,-1000.0,0.0
2024-06-05T16:29:45.946290,13.671875,235.83984375,-378.90625,-277.34375,0.0
2024-06-05T16:29:45.950024,-1000.0,-1000.0,-893.5546875,-810.546875,0.0
2024-06-05T16:29:45.953757,-236.81640625,-322.75390625,759.765625,431.15234375,0.0
2024-06-05T16:29:45.957490,-830.56640625,-835.44921875,-828.61328125,-1000.0,0.0
2024-06-05T16:29:45.961223,241.2109375,238.28125,-895.5078125,-481.93359375,0.0
2024-06-05T16:29:45.964956,-1000.0,-1000.0,635.25390625,-958.0078125,0.0
2024-06-05T16:29:45.968689,-650.390625,-782.71484375,-829.58984375,885.25390625,0.0
2024-06-05T16:29:45.972423,-995.1171875,830.078125,-66.40625,-670.8984375,0.0
2024-06-05T16:29:45.976156,547.8515625,727.05078125,-1000.0,-966.796875,0.0
2024-06-05T16:29:45.981543,-978.515625,-845.21484375,-34.66796875,558.59375,0.0
2024-06-05T16:29:45.985280,-1000.0,-1000.0,-770.01953125,-809.5703125,0.0
2024-06-05T16:29:45.989017,253.41796875,114.2578125,203.125,4.8828125,0.0
2024-06-05T16:29:45.992755,-938.96484375,-822.75390625,-1000.0,-1000.0,0.0
2024-06-05T16:29:45.996492,-403.3203125,-111.81640625,-276.3671875,-104.4921875,0.0
2024-06-05T16:29:46.000230,-1000.0,-1000.0,-812.01171875,-777.34375,0.0
2024-06-05T16:29:46.003967,-208.984375,-229.4921875,432.12890625,209.47265625,0.0
2024-06-05T16:29:46.007705,-847.16796875,-831.0546875,-1000.0,-1000.0,0.0
2024-06-05T16:29:46.011442,136.71875,241.69921875,-508.30078125,-276.85546875,0.0
2024-06-05T16:29:46.015180,-1000.0,-1000.0,-995.1171875,-821.2890625,0.0
2024-06-05T16:29:46.018917,-346.19140625,-464.84375,951.66015625,525.87890625,0.0
2024-06-05T16:29:46.022655,-856.93359375,-887.20703125,-532.2265625,-1000.0,0.0
2024-06-05T16:29:46.027911,246.58203125,381.8359375,-1000.0,-580.078125,0.0
2024-06-05T16:29:46.031652,-1000.0,-1000.0,394.04296875,970.21484375,0.0
2024-06-05T16:29:46.035393,-786.1328125,-911.62109375,-783.69140625,997.55859375,0.0
2024-06-05T16:29:46.039135,845.703125,634.765625,71.77734375,-457.51953125,0.0
2024-06-05T16:29:46.042876,657.2265625,914.0625,-1000.0,-1000.0,0.0
2024-06-05T16:29:46.046618,-917.96875,-619.62890625,-152.34375,311.03515625,0.0
2024-06-05T16:29:46.050359,-1000.0,-1000.0,-780.76171875,-774.90234375,0.0
2024-06-05T16:29:46.054100,125.0,-26.85546875,213.37890625,183.10546875,0.0
2024-06-05T16:29:46.057841,-851.07421875,-820.3125,-1000.0,-1000.0,0.0
2024-06-05T16:29:46.061583,-213.37890625,5.37109375,-275.87890625,-268.5546875,0.0
2024-06-05T16:29:46.065324,-1000.0,-1000.0,-828.61328125,-799.8046875,0.0
2024-06-05T16:29:46.069065,-221.19140625,-238.28125,567.3828125,225.09765625,0.0
2024-06-05T16:29:46.074202,-837.40234375,-827.63671875,-1000.0,-1000.0,0.0
2024-06-05T16:29:46.077947,241.69921875,242.1875,-649.90234375,-273.4375,0.0
2024-06-05T16:29:46.081692,-1000.0,-1000.0,894.53125,-834.47265625,0.0
2024-06-05T16:29:46.085436,-463.37890625,-561.5234375,-901.85546875,613.76953125,0.0
2024-06-05T16:29:46.089181,-886.71875,-940.4296875,-261.71875,-1000.0,0.0
2024-06-05T16:29:46.092926,349.609375,524.4140625,-1000.0,-667.48046875,0.0
2024-06-05T16:29:46.096670,-1000.0,-1000.0,185.546875,875.48828125,0.0
2024-06-05T16:29:46.100415,-915.52734375,-1000.0,-760.25390625,-880.859375,0.0
2024-06-05T16:29:46.104160,661.1328125,413.0859375,185.546875,-147.94921875,0.0
2024-06-05T16:29:46.107905,805.6640625,-947.265625,-1000.0,-1000.0,0.0
2024-06-05T16:29:46.111650,-751.953125,-408.203125,-270.01953125,75.68359375,0.0
2024-06-05T16:29:46.115394,-1000.0,-1000.0,-802.734375,-761.71875,0.0
2024-06-05T16:29:46.120422,-65.91796875,-187.98828125,264.16015625,193.359375,0.0
2024-06-05T16:29:46.124169,-847.65625,-835.9375,-1000.0,-1000.0,0.0
2024-06-05T16:29:46.127917,-71.77734375,127.9296875,-340.8203125,-273.4375,0.0
2024-06-05T16:29:46.131665,-1000.0,-1000.0,-883.7890625,-803.22265625,0.0
2024-06-05T16:29:46.135413,-229.00390625,-247.0703125,739.2578125,331.0546875,0.0
2024-06-05T16:29:46.139161,-833.49609375,-822.75390625,-872.0703125,-1000.0,0.0
2024-06-05T16:29:46.142908,242.67578125,239.74609375,-827.63671875,-371.09375,0.0
2024-06-05T16:29:46.146656,-1000.0,-1000.0,732.421875,-916.50390625,0.0
2024-06-05T16:29:46.150404,-560.546875,-649.90234375,-850.5859375,841.796875,0.0
2024-06-05T16:29:46.154152,-934.08203125,996.58203125,-153.3203125,-707.51953125,0.0
2024-06-05T16:29:46.157899,446.2890625,631.8359375,-1000.0,-947.75390625,0.0
2024-06-05T16:29:46.161647,-1000.0,-916.50390625,75.68359375,585.44921875,0.0
2024-06-05T16:29:46.166575,-1000.0,-1000.0,-761.71875,-814.94140625,0.0
2024-06-05T16:29:46.170325,400.390625,161.62109375,193.359375,-41.015625,0.0
2024-06-05T16:29:46.174076,943.359375,-847.65625,-1000.0,-1000.0,0.0
2024-06-05T16:29:46.177826,-578.61328125,-215.8203125,-276.85546875,-37.59765625,0.0
2024-06-05T16:29:46.181577,-1000.0,-1000.0,-810.05859375,-768.5546875,0.0
2024-06-05T16:29:46.185327,-208.984375,-221.19140625,412.109375,202.63671875,0.0
2024-06-05T16:29:46.189078,-846.6796875,-832.51953125,-1000.0,-1000.0,0.0
2024-06-05T16:29:46.192828,130.37109375,238.28125,-479.00390625,-277.34375,0.0
2024-06-05T16:29:46.196579,-1000.0,-1000.0,-961.42578125,-816.89453125,0.0
2024-06-05T16:29:46.200329,-247.0703125,-367.1875,893.06640625,482.421875,0.0
2024-06-05T16:29:46.204080,-823.2421875,-845.21484375,-688.96484375,-1000.0,0.0
2024-06-05T16:29:46.207830,239.2578125,337.890625,-913.0859375,-536.1328125,0.0
2024-06-05T16:29:46.212666,-1000.0,-1000.0,650.390625,984.375,0.0
2024-06-05T16:29:46.216419,-650.390625,-857.91015625,-824.21875,994.62890625,0.0
2024-06-05T16:29:46.220172,-992.1875,739.2578125,-37.109375,-468.75,0.0
2024-06-05T16:29:46.223925,540.0390625,799.31640625,-1000.0,-1000.0,0.0
2024-06-05T16:29:46.227678,-967.7734375,-758.7890625,-75.68359375,379.39453125,0.0
2024-06-05T16:29:46.231431,-1000.0,-1000.0,-775.87890625,-780.2734375,0.0
2024-06-05T16:29:46.235183,118.1640625,9.765625,207.03125,71.77734375,0.0
2024-06-05T16:29:46.238936,-849.609375,-827.63671875,-1000.0,-1000.0,0.0
2024-06-05T16:29:46.242690,-213.37890625,-58.10546875,-277.34375,-152.34375,0.0
2024-06-05T16:29:46.246443,-1000.0,-1000.0,-821.2890625,-780.76171875,0.0
2024-06-05T16:29:46.250196,-221.19140625,-232.421875,525.87890625,213.37890625,0.0
2024-06-05T16:29:46.253948,-833.49609375,-829.1015625,-1000.0,-1000.0,0.0
2024-06-05T16:29:46.259590,237.79296875,241.2109375,-580.078125,-275.87890625,0.0
2024-06-05T16:29:46.263347,-1000.0,-1000.0,970.21484375,-834.47265625,0.0
2024-06-05T16:29:46.267104,-360.83984375,-498.046875,997.0703125,613.76953125,0.0
2024-06-05T16:29:46.270861,-847.16796875,-902.83203125,-464.35546875,-1000.0,0.0
2024-06-05T16:29:46.274619,232.91015625,440.4296875,-1000.0,-672.8515625,0.0
2024-06-05T16:29:46.278376,-1000.0,-1000.0,333.984375,889.6484375,0.0
2024-06-05T16:29:46.282133,-904.78515625,-1000.0,-778.80859375,-899.90234375,0.0
2024-06-05T16:29:46.285890,662.109375,472.65625,134.765625,-262.6953125,0.0
2024-06-05T16:29:46.289647,770.5078125,968.75,-1000.0,-1000.0,0.0
2024-06-05T16:29:46.293404,-806.15234375,-550.29296875,-247.0703125,185.05859375,0.0
2024-06-05T16:29:46.297161,-1000.0,-1000.0,-799.31640625,-760.7421875,0.0
2024-06-05T16:29:46.300918,12.6953125,-105.46875,224.12109375,185.546875,0.0
2024-06-05T16:29:46.306413,-836.9140625,-821.2890625,-1000.0,-1000.0,0.0
2024-06-05T16:29:46.310174,-101.5625,94.7265625,-273.4375,-274.4140625,0.0
2024-06-05T16:29:46.313935,-1000.0,-1000.0,-834.47265625,-803.22265625,0.0
2024-06-05T16:29:46.317695,-228.02734375,-246.58203125,613.28125,330.56640625,0.0
2024-06-05T16:29:46.321456,-834.47265625,-823.73046875,-1000.0,-1000.0,0.0
2024-06-05T16:29:46.325217,242.67578125,240.234375,-679.19921875,-379.8828125,0.0
2024-06-05T16:29:46.328978,-1000.0,-1000.0,876.46484375,-892.08984375,0.0
2024-06-05T16:29:46.332739,-545.41015625,-632.32421875,-894.04296875,756.8359375,0.0
2024-06-05T16:29:46.336499,-927.24609375,-983.88671875,-215.8203125,-857.91015625,0.0
2024-06-05T16:29:46.340260,382.8125,549.31640625,-1000.0,-830.078125,0.0
2024-06-05T16:29:46.344021,-1000.0,-976.5625,106.93359375,732.91015625,0.0
2024-06-05T16:29:46.347782,-1000.0,-1000.0,-763.671875,-850.5859375,0.0
2024-06-05T16:29:46.353141,457.03125,230.95703125,191.40625,-153.3203125,0.0
2024-06-05T16:29:46.356905,947.265625,-871.58203125,-1000.0,-1000.0,0.0
2024-06-05T16:29:46.360669,-587.40234375,-277.83203125,-273.92578125,75.68359375,0.0
2024-06-05T16:29:46.364433,-1000.0,-1000.0,-803.22265625,-761.71875,0.0
2024-06-05T16:29:46.368197,-97.16796875,-220.21484375,330.56640625,192.87109375,0.0
2024-06-05T16:29:46.371962,-833.984375,-833.0078125,-1000.0,-1000.0,0.0
2024-06-05T16:29:46.375726,13.671875,236.328125,-377.44140625,-277.34375,0.0
2024-06-05T16:29:46.379490,-1000.0,-1000.0,-897.4609375,-810.546875,0.0
2024-06-05T16:29:46.383254,-236.81640625,-328.61328125,774.4140625,431.15234375,0.0
2024-06-05T16:29:46.387018,-830.56640625,-837.40234375,-807.12890625,-1000.0,0.0
2024-06-05T16:29:46.390782,241.69921875,239.2578125,-904.78515625,-481.93359375,0.0
2024-06-05T16:29:46.394546,-1000.0,-1000.0,625.9765625,-958.0078125,0.0
2024-06-05T16:29:46.399780,-650.390625,-781.73828125,-826.66015625,885.25390625,0.0
2024-06-05T16:29:46.403547,-994.62890625,827.63671875,-59.08203125,-670.8984375,0.0
2024-06-05T16:29:46.407315,547.8515625,736.81640625,-1000.0,-965.8203125,0.0
2024-06-05T16:29:46.411082,-978.515625,-833.984375,-35.64453125,557.12890625,0.0
2024-06-05T16:29:46.414849,-1000.0,-1000.0,-769.53125,-808.59375,0.0
2024-06-05T16:29:46.418616,253.90625,114.74609375,202.63671875,20.5078125,0.0
2024-06-05T16:29:46.422383,-938.96484375,-822.75390625,-1000.0,-1000.0,0.0
2024-06-05T16:29:46.426150,-403.3203125,-111.81640625,-276.3671875,-116.69921875,0.0
2024-06-05T16:29:46.429917,-1000.0,-1000.0,-812.5,-778.3203125,0.0
2024-06-05T16:29:46.433684,-208.984375,-229.4921875,432.12890625,210.44921875,0.0
2024-06-05T16:29:46.437452,-847.16796875,-831.0546875,-1000.0,-1000.0,0.0
2024-06-05T16:29:46.441219,136.71875,241.2109375,-518.06640625,-276.85546875,0.0
2024-06-05T16:29:46.446337,-1000.0,-1000.0,997.55859375,-821.2890625,0.0
2024-06-05T16:29:46.450107,-346.19140625,-464.84375,958.0078125,525.87890625,0.0
2024-06-05T16:29:46.453877,-856.4453125,-887.6953125,-521.97265625,-1000.0,0.0
2024-06-05T16:29:46.457646,246.58203125,391.11328125,-1000.0,-577.1484375,0.0
2024-06-05T16:29:46.461416,-1000.0,-1000.0,379.8828125,963.8671875,0.0
2024-06-05T16:29:46.465186,-786.1328125,-913.0859375,-781.73828125,-985.3515625,0.0
2024-06-05T16:29:46.468956,845.703125,633.7890625,71.77734375,-417.96875,0.0
2024-06-05T16:29:46.472726,657.71484375,918.9453125,-1000.0,-1000.0,0.0
2024-06-05T16:29:46.476496,-917.96875,-612.79296875,-152.34375,288.0859375,0.0
2024-06-05T16:29:46.480265,-1000.0,-1000.0,-780.76171875,-771.97265625,0.0
2024-06-05T16:29:46.484035,125.0,-30.2734375,213.37890625,183.59375,0.0
2024-06-05T16:29:46.487805,-851.07421875,-820.3125,-1000.0,-1000.0,0.0
2024-06-05T16:29:46.493574,-213.37890625,5.859375,-275.87890625,-268.06640625,0.0
2024-06-05T16:29:46.497348,-1000.0,-1000.0,-829.1015625,-799.8046875,0.0
2024-06-05T16:29:46.501121,-221.19140625,-237.79296875,575.68359375,225.09765625,0.0
2024-06-05T16:29:46.504895,-837.890625,-827.63671875,-1000.0,-1000.0,0.0
2024-06-05T16:29:46.508669,241.69921875,242.1875,-653.80859375,-273.4375,0.0
2024-06-05T16:29:46.512442,-1000.0,-1000.0,894.04296875,-834.47265625,0.0
2024-06-05T16:29:46.516216,-463.37890625,-561.5234375,-901.3671875,612.79296875,0.0
2024-06-05T16:29:46.519990,-886.71875,-939.94140625,-262.20703125,-1000.0,0.0
2024-06-05T16:29:46.523763,349.609375,523.92578125,-1000.0,-683.59375,0.0
2024-06-05T16:29:46.527537,-1000.0,-1000.0,185.546875,857.421875,0.0
2024-06-05T16:29:46.531311,-915.52734375,-1000.0,-760.25390625,-876.953125,0.0
2024-06-05T16:29:46.535084,661.1328125,402.34375,185.546875,-147.94921875,0.0
2024-06-05T16:29:46.539904,804.19921875,-946.77734375,-1000.0,-1000.0,0.0
2024-06-05T16:29:46.543679,-750.0,-407.71484375,-270.5078125,75.68359375,0.0
2024-06-05T16:29:46.547455,-1000.0,-1000.0,-803.22265625,-761.71875,0.0
2024-06-05T16:29:46.551231,-91.796875,-194.82421875,270.5078125,192.87109375,0.0
2024-06-05T16:29:46.555006,-848.14453125,-836.42578125,-1000.0,-1000.0,0.0
2024-06-05T16:29:46.558782,-46.875,144.04296875,-347.65625,-273.4375,0.0
2024-06-05T16:29:46.562558,-1000.0,-1000.0,-887.20703125,-803.22265625,0.0
2024-06-05T16:29:46.566333,-230.46875,-249.51171875,747.55859375,331.0546875,0.0
2024-06-05T16:29:46.570109,-832.03125,-821.2890625,-864.2578125,-1000.0,0.0
2024-06-05T16:29:46.573885,242.1875,239.2578125,-829.1015625,-370.1171875,0.0
2024-06-05T16:29:46.577660,-1000.0,-1000.0,732.91015625,-918.45703125,0.0
2024-06-05T16:29:46.581436,-560.05859375,-649.90234375,-850.5859375,849.609375,0.0
2024-06-05T16:29:46.586170,-933.10546875,996.58203125,-153.3203125,-690.91796875,0.0
2024-06-05T16:29:46.589947,442.3828125,630.859375,-1000.0,-965.33203125,0.0
2024-06-05T16:29:46.593724,-1000.0,-915.52734375,75.68359375,565.4296875,0.0
2024-06-05T16:29:46.597502,-1000.0,-1000.0,-761.71875,-812.01171875,0.0
2024-06-05T16:29:46.601279,354.00390625,154.78515625,193.359375,-41.50390625,0.0
2024-06-05T16:29:46.605057,946.2890625,-848.14453125,-1000.0,-1000.0,0.0
2024-06-05T16:29:46.608834,-577.63671875,-215.33203125,-276.85546875,-37.59765625,0.0
2024-06-05T16:29:46.612612,-1000.0,-1000.0,-810.05859375,-768.5546875,0.0
2024-06-05T16:29:46.616389,-208.984375,-221.19140625,416.015625,202.63671875,0.0
2024-06-05T16:29:46.620167,-847.16796875,-832.51953125,-1000.0,-1000.0,0.0
2024-06-05T16:29:46.623944,130.859375,238.28125,-479.4921875,-277.34375,0.0
2024-06-05T16:29:46.627722,-1000.0,-1000.0,-959.47265625,-817.3828125,0.0
2024-06-05T16:29:46.633146,-247.0703125,-367.1875,885.7421875,487.79296875,0.0
2024-06-05T16:29:46.636926,-823.2421875,-845.21484375,-670.41015625,-1000.0,0.0
2024-06-05T16:29:46.640707,239.2578125,337.40234375,-969.23828125,-550.29296875,0.0
2024-06-05T16:29:46.644487,-1000.0,-1000.0,562.5,978.02734375,0.0
2024-06-05T16:29:46.648267,-654.296875,-862.79296875,-813.96484375,996.58203125,0.0
2024-06-05T16:29:46.652048,-996.58203125,732.91015625,-32.71484375,-469.7265625,0.0
2024-06-05T16:29:46.655828,541.015625,800.29296875,-1000.0,-1000.0,0.0
2024-06-05T16:29:46.659609,-967.7734375,-759.27734375,-88.8671875,379.39453125,0.0
2024-06-05T16:29:46.663389,-1000.0,-1000.0,-778.3203125,-780.2734375,0.0
2024-06-05T16:29:46.667169,118.1640625,9.27734375,208.984375,71.77734375,0.0
2024-06-05T16:29:46.670950,-849.12109375,-827.63671875,-1000.0,-1000.0,0.0
2024-06-05T16:29:46.674730,-213.37890625,-55.6640625,-276.85546875,-152.34375,0.0
2024-06-05T16:29:46.680029,-1000.0,-1000.0,-821.2890625,-780.76171875,0.0
2024-06-05T16:29:46.683812,-221.19140625,-232.91015625,525.87890625,213.37890625,0.0
2024-06-05T16:29:46.687595,-833.49609375,-829.1015625,-1000.0,-1000.0,0.0
2024-06-05T16:29:46.691378,237.79296875,241.69921875,-580.56640625,-275.87890625,0.0
2024-06-05T16:29:46.695161,-1000.0,-1000.0,969.23828125,-834.47265625,0.0
2024-06-05T16:29:46.698945,-360.83984375,-503.41796875,-998.046875,613.76953125,0.0
2024-06-05T16:29:46.702728,-847.16796875,-905.2734375,-477.5390625,-1000.0,0.0
2024-06-05T16:29:46.706511,232.421875,440.91796875,-1000.0,-672.8515625,0.0
2024-06-05T16:29:46.710294,-1000.0,-1000.0,395.01953125,889.6484375,0.0
2024-06-05T16:29:46.714077,-904.296875,-1000.0,-788.57421875,-899.90234375,0.0
2024-06-05T16:29:46.717860,660.15625,460.44921875,135.25390625,-263.18359375,0.0
2024-06-05T16:29:46.721643,778.80859375,973.6328125,-1000.0,-1000.0,0.0
2024-06-05T16:29:46.726825,-796.875,-544.43359375,-253.90625,185.546875,0.0
2024-06-05T16:29:46.730611,-1000.0,-1000.0,-801.26953125,-760.7421875,0.0
2024-06-05T16:29:46.734396,13.18359375,-105.95703125,225.09765625,185.05859375,0.0
2024-06-05T16:29:46.738182,-836.9140625,-820.80078125,-1000.0,-1000.0,0.0
2024-06-05T16:29:46.741967,-101.07421875,97.16796875,-273.4375,-274.4140625,0.0
2024-06-05T16:29:46.745753,-1000.0,-1000.0,-834.47265625,-803.22265625,0.0
2024-06-05T16:29:46.749538,-228.02734375,-247.0703125,612.3046875,330.56640625,0.0
2024-06-05T16:29:46.753324,-834.9609375,-823.73046875,-1000.0,-1000.0,0.0
2024-06-05T16:29:46.757109,242.67578125,240.234375,-689.94140625,-379.8828125,0.0
2024-06-05T16:29:46.760895,-1000.0,-1000.0,863.28125,-892.08984375,0.0
2024-06-05T16:29:46.764680,-558.10546875,-637.20703125,-889.6484375,756.8359375,0.0
2024-06-05T16:29:46.768466,-933.59375,-986.81640625,-208.0078125,-857.91015625,0.0
2024-06-05T16:29:46.773539,395.01953125,553.22265625,-1000.0,-830.078125,0.0
2024-06-05T16:29:46.777327,-1000.0,-975.5859375,104.00390625,732.91015625,0.0
2024-06-05T16:29:46.781115,-1000.0,-1000.0,-763.671875,-850.5859375,0.0
2024-06-05T16:29:46.784903,457.51953125,230.46875,191.40625,-153.3203125,0.0
2024-06-05T16:29:46.788690,946.77734375,-869.62890625,-1000.0,-1000.0,0.0
2024-06-05T16:29:46.792478,-587.40234375,-274.4140625,-273.92578125,75.68359375,0.0
2024-06-05T16:29:46.796266,-1000.0,-1000.0,-803.22265625,-761.71875,0.0
2024-06-05T16:29:46.800053,-97.65625,-220.21484375,330.56640625,193.359375,0.0
2024-06-05T16:29:46.803841,-833.984375,-833.49609375,-1000.0,-1000.0,0.0
2024-06-05T16:29:46.807629,13.671875,236.328125,-375.9765625,-277.34375,0.0
2024-06-05T16:29:46.811417,-1000.0,-1000.0,-901.85546875,-810.546875,0.0
2024-06-05T16:29:46.815204,-236.81640625,-332.03125,790.0390625,431.15234375,0.0
2024-06-05T16:29:46.820177,-830.56640625,-838.37890625,-786.1328125,-1000.0,0.0
2024-06-05T16:29:46.823966,241.2109375,239.74609375,-908.69140625,-481.93359375,0.0
2024-06-05T16:29:46.827756,-1000.0,-1000.0,624.0234375,-958.0078125,0.0
2024-06-05T16:29:46.831546,-650.390625,-781.25,-825.1953125,885.25390625,0.0
2024-06-05T16:29:46.835335,-995.1171875,825.68359375,-53.7109375,-671.38671875,0.0
2024-06-05T16:29:46.839125,547.8515625,745.60546875,-1000.0,-965.33203125,0.0
2024-06-05T16:29:46.842915,-978.515625,-825.1953125,-36.1328125,556.15234375,0.0
2024-06-05T16:29:46.846704,-1000.0,-1000.0,-769.53125,-807.6171875,0.0
2024-06-05T16:29:46.850494,253.41796875,114.74609375,202.63671875,31.25,0.0
2024-06-05T16:29:46.854284,-939.453125,-822.75390625,-1000.0,-1000.0,0.0
2024-06-05T16:29:46.858074,-403.3203125,-111.81640625,-276.3671875,-124.51171875,0.0
2024-06-05T16:29:46.861863,-1000.0,-1000.0,-812.98828125,-778.80859375,0.0
2024-06-05T16:29:46.866741,-208.984375,-229.4921875,437.98828125,210.9375,0.0
2024-06-05T16:29:46.870533,-847.16796875,-831.0546875,-1000.0,-1000.0,0.0
2024-06-05T16:29:46.874324,136.71875,241.2109375,-522.4609375,-276.3671875,0.0
2024-06-05T16:29:46.878116,-1000.0,-1000.0,994.140625,-821.2890625,0.0
2024-06-05T16:29:46.881907,-346.19140625,-465.33203125,965.33203125,525.87890625,0.0
2024-06-05T16:29:46.885699,-856.93359375,-887.6953125,-511.71875,-1000.0,0.0
2024-06-05T16:29:46.889490,246.58203125,393.06640625,-1000.0,-575.1953125,0.0
2024-06-05T16:29:46.893282,-1000.0,-1000.0,379.39453125,959.9609375,0.0
2024-06-05T16:29:46.897073,-786.1328125,-913.0859375,-781.73828125,-974.12109375,0.0
2024-06-05T16:29:46.900865,845.703125,633.30078125,71.77734375,-390.625,0.0
2024-06-05T16:29:46.904656,657.2265625,921.38671875,-1000.0,-1000.0,0.0
2024-06-05T16:29:46.908448,-917.96875,-607.91015625,-152.34375,269.53125,0.0
2024-06-05T16:29:46.913238,-1000.0,-1000.0,-780.76171875,-770.01953125,0.0
2024-06-05T16:29:46.917031,125.0,-37.59765625,213.37890625,183.59375,0.0
2024-06-05T16:29:46.920824,-851.07421875,-821.77734375,-1000.0,-1000.0,0.0
2024-06-05T16:29:46.924617,-213.37890625,6.8359375,-275.87890625,-268.06640625,0.0
2024-06-05T16:29:46.928410,-1000.0,-1000.0,-830.56640625,-799.8046875,0.0
2024-06-05T16:29:46.932204,-221.19140625,-237.79296875,582.03125,225.09765625,0.0
2024-06-05T16:29:46.935997,-837.890625,-827.63671875,-1000.0,-1000.0,0.0
2024-06-05T16:29:46.939790,241.69921875,242.1875,-656.25,-273.4375,0.0
2024-06-05T16:29:46.943583,-1000.0,-1000.0,893.5546875,-834.47265625,0.0
2024-06-05T16:29:46.947376,-463.37890625,-562.01171875,-901.3671875,612.79296875,0.0
2024-06-05T16:29:46.951169,-886.71875,-939.94140625,-262.20703125,-1000.0,0.0
2024-06-05T16:29:46.954962,349.12109375,527.83203125,-1000.0,-696.2890625,0.0
2024-06-05T16:29:46.959670,-1000.0,-1000.0,185.546875,843.75,0.0
2024-06-05T16:29:46.963465,-915.52734375,-1000.0,-760.7421875,-874.51171875,0.0
2024-06-05T16:29:46.967259,661.1328125,390.625,185.546875,-148.4375,0.0
2024-06-05T16:29:46.971054,803.7109375,-946.2890625,-1000.0,-1000.0,0.0
2024-06-05T16:29:46.974848,-750.0,-407.2265625,-270.99609375,75.68359375,0.0
2024-06-05T16:29:46.978643,-1000.0,-1000.0,-803.22265625,-761.71875,0.0
2024-06-05T16:29:46.982437,-94.23828125,-198.73046875,277.83203125,192.87109375,0.0
2024-06-05T16:29:46.986232,-846.19140625,-836.9140625,-1000.0,-1000.0,0.0
2024-06-05T16:29:46.990026,-35.15625,150.87890625,-353.02734375,-273.4375,0.0
2024-06-05T16:29:46.993821,-1000.0,-1000.0,-890.13671875,-803.22265625,0.0
2024-06-05T16:29:46.997616,-231.93359375,-250.0,755.37109375,331.0546875,0.0
2024-06-05T16:29:47.001410,-831.54296875,-820.80078125,-856.4453125,-1000.0,0.0
2024-06-05T16:29:47.006719,242.1875,238.76953125,-830.56640625,-369.140625,0.0
2024-06-05T16:29:47.010516,-1000.0,-1000.0,732.91015625,-921.875,0.0
2024-06-05T16:29:47.014313,-560.546875,-654.78515625,-850.5859375,860.3515625,0.0
2024-06-05T16:29:47.018110,-932.6171875,991.69921875,-153.3203125,-675.78125,0.0
2024-06-05T16:29:47.021907,440.91796875,631.34765625,-1000.0,-970.21484375,0.0
2024-06-05T16:29:47.025704,-1000.0,-915.0390625,75.68359375,562.01171875,0.0
2024-06-05T16:29:47.029501,-1000.0,-1000.0,-761.71875,-811.03515625,0.0
2024-06-05T16:29:47.033298,328.125,148.4375,193.359375,-41.50390625,0.0
2024-06-05T16:29:47.037094,955.56640625,-848.6328125,-1000.0,-1000.0,0.0
2024-06-05T16:29:47.040891,-565.4296875,-214.84375,-276.85546875,-37.59765625,0.0
2024-06-05T16:29:47.044688,-1000.0,-1000.0,-810.546875,-768.5546875,0.0
2024-06-05T16:29:47.048485,-208.984375,-221.19140625,418.9453125,202.63671875,0.0
2024-06-05T16:29:47.053683,-846.6796875,-833.0078125,-1000.0,-1000.0,0.0
2024-06-05T16:29:47.057482,130.859375,238.28125,-479.98046875,-277.34375,0.0
2024-06-05T16:29:47.061280,-1000.0,-1000.0,-958.984375,-818.359375,0.0
2024-06-05T16:29:47.065079,-247.0703125,-367.1875,885.7421875,500.0,0.0
2024-06-05T16:29:47.068879,-823.2421875,-845.21484375,-670.41015625,-1000.0,0.0
2024-06-05T16:29:47.072678,236.328125,336.42578125,-968.26171875,-557.6171875,0.0
2024-06-05T16:29:47.076477,-1000.0,-1000.0,561.5234375,976.5625,0.0
2024-06-05T16:29:47.080276,-694.3359375,-871.58203125,-812.5,997.55859375,0.0
2024-06-05T16:29:47.084074,959.47265625,721.6796875,-20.99609375,-470.21484375,0.0
2024-06-05T16:29:47.087873,549.8046875,801.7578125,-1000.0,-1000.0,0.0
2024-06-05T16:29:47.091672,-969.7265625,-759.27734375,-93.75,379.39453125,0.0
2024-06-05T16:29:47.095471,-1000.0,-1000.0,-777.83203125,-780.2734375,0.0
2024-06-05T16:29:47.100564,118.1640625,8.30078125,208.984375,71.77734375,0.0
2024-06-05T16:29:47.104365,-849.609375,-825.68359375,-1000.0,-1000.0,0.0
2024-06-05T16:29:47.108166,-213.37890625,-47.8515625,-276.85546875,-152.34375,0.0
2024-06-05T16:29:47.111967,-1000.0,-1000.0,-821.2890625,-780.76171875,0.0
2024-06-05T16:29:47.115768,-221.19140625,-233.3984375,525.87890625,213.37890625,0.0
2024-06-05T16:29:47.119569,-833.49609375,-829.1015625,-1000.0,-1000.0,0.0
2024-06-05T16:29:47.123370,237.79296875,241.69921875,-580.078125,-275.87890625,0.0
2024-06-05T16:29:47.127171,-1000.0,-1000.0,971.19140625,-834.47265625,0.0
2024-06-05T16:29:47.130972,-360.83984375,-512.6953125,994.62890625,613.76953125,0.0
2024-06-05T16:29:47.134773,-847.16796875,-910.15625,-458.49609375,-1000.0,0.0
2024-06-05T16:29:47.138574,232.421875,441.89453125,-1000.0,-672.8515625,0.0
2024-06-05T16:29:47.142375,-1000.0,-1000.0,301.26953125,890.13671875,0.0
2024-06-05T16:29:47.147369,-902.34375,-1000.0,-776.3671875,-899.90234375,0.0
2024-06-05T16:29:47.151172,652.83203125,450.68359375,147.94921875,-262.6953125,0.0
2024-06-05T16:29:47.154975,810.546875,984.86328125,-1000.0,-1000.0,0.0
2024-06-05T16:29:47.158777,-762.6953125,-528.3203125,-255.37109375,185.546875,0.0
2024-06-05T16:29:47.162580,-1000.0,-1000.0,-800.29296875,-760.25390625,0.0
2024-06-05T16:29:47.166383,14.6484375,-106.4453125,225.09765625,185.546875,0.0
2024-06-05T16:29:47.170185,-836.9140625,-819.82421875,-1000.0,-1000.0,0.0
2024-06-05T16:29:47.173988,-101.5625,103.02734375,-273.4375,-274.4140625,0.0
2024-06-05T16:29:47.177791,-1000.0,-1000.0,-834.47265625,-803.22265625,0.0
2024-06-05T16:29:47.181593,-228.02734375,-247.55859375,611.81640625,330.56640625,0.0
2024-06-05T16:29:47.185396,-834.9609375,-823.2421875,-1000.0,-1000.0,0.0
2024-06-05T16:29:47.189199,242.67578125,240.234375,-695.80078125,-379.8828125,0.0
2024-06-05T16:29:47.194102,-1000.0,-1000.0,854.00390625,-892.08984375,0.0
2024-06-05T16:29:47.197906,-559.08203125,-639.6484375,-885.7421875,756.8359375,0.0
2024-06-05T16:29:47.201710,-934.5703125,-990.234375,-196.2890625,-857.91015625,0.0
2024-06-05T16:29:47.205514,418.9453125,565.91796875,-1000.0,-830.078125,0.0
2024-06-05T16:29:47.209319,-1000.0,-968.26171875,96.6796875,732.91015625,0.0
2024-06-05T16:29:47.213123,-1000.0,-1000.0,-763.18359375,-850.5859375,0.0
2024-06-05T16:29:47.216927,459.47265625,229.00390625,191.89453125,-153.3203125,0.0
2024-06-05T16:29:47.220731,946.2890625,-864.2578125,-1000.0,-1000.0,0.0
2024-06-05T16:29:47.224535,-587.40234375,-263.671875,-273.4375,75.68359375,0.0
2024-06-05T16:29:47.228340,-1000.0,-1000.0,-803.22265625,-761.71875,0.0
2024-06-05T16:29:47.232144,-97.65625,-220.703125,330.56640625,192.87109375,0.0
2024-06-05T16:29:47.235948,-833.49609375,-833.49609375,-1000.0,-1000.0,0.0
2024-06-05T16:29:47.240765,13.671875,236.81640625,-375.48828125,-277.34375,0.0
2024-06-05T16:29:47.244570,-1000.0,-1000.0,-904.296875,-810.546875,0.0
2024-06-05T16:29:47.248376,-236.81640625,-339.35546875,799.31640625,431.15234375,0.0
2024-06-05T16:29:47.252182,-830.56640625,-840.8203125,-770.01953125,-1000.0,0.0
2024-06-05T16:29:47.255988,241.69921875,244.62890625,-921.38671875,-482.421875,0.0
2024-06-05T16:29:47.259793,-1000.0,-1000.0,609.375,-958.0078125,0.0
2024-06-05T16:29:47.263599,-650.390625,-781.25,-821.2890625,885.25390625,0.0
2024-06-05T16:29:47.267405,-994.62890625,824.70703125,-47.8515625,-671.38671875,0.0
2024-06-05T16:29:47.271210,548.33984375,750.0,-1000.0,-963.8671875,0.0
2024-06-05T16:29:47.275016,-978.515625,-819.82421875,-36.62109375,554.6875,0.0
2024-06-05T16:29:47.278822,-1000.0,-1000.0,-769.04296875,-805.6640625,0.0
2024-06-05T16:29:47.282627,253.90625,115.234375,202.63671875,49.31640625,0.0
2024-06-05T16:29:47.287363,-939.453125,-822.75390625,-1000.0,-1000.0,0.0
2024-06-05T16:29:47.291170,-403.3203125,-111.81640625,-276.3671875,-133.30078125,0.0
2024-06-05T16:29:47.294977,-1000.0,-1000.0,-813.96484375,-779.296875,0.0
2024-06-05T16:29:47.298784,-208.984375,-229.4921875,452.63671875,211.42578125,0.0
2024-06-05T16:29:47.302591,-847.16796875,-831.0546875,-1000.0,-1000.0,0.0
2024-06-05T16:29:47.306398,136.71875,241.2109375,-526.3671875,-276.3671875,0.0
2024-06-05T16:29:47.310205,-1000.0,-1000.0,990.72265625,-820.80078125,0.0
2024-06-05T16:29:47.314012,-346.19140625,-465.8203125,976.5625,525.87890625,0.0
2024-06-05T16:29:47.317819,-856.4453125,-888.18359375,-495.60546875,-1000.0,0.0
2024-06-05T16:29:47.321625,246.58203125,402.83203125,-1000.0,-571.77734375,0.0
2024-06-05T16:29:47.325433,-1000.0,-1000.0,379.39453125,951.171875,0.0
2024-06-05T16:29:47.329239,-786.1328125,-913.57421875,-780.76171875,-949.70703125,0.0
2024-06-05T16:29:47.333899,845.703125,631.8359375,71.77734375,-342.28515625,0.0
2024-06-05T16:29:47.337707,657.2265625,930.6640625,-1000.0,-1000.0,0.0
2024-06-05T16:29:47.341515,-917.96875,-593.75,-152.34375,260.25390625,0.0
2024-06-05T16:29:47.345323,-1000.0,-1000.0,-780.76171875,-768.06640625,0.0
2024-06-05T16:29:47.349131,125.0,-46.38671875,213.37890625,184.08203125,0.0
2024-06-05T16:29:47.352939,-851.07421875,-823.2421875,-1000.0,-1000.0,0.0
2024-06-05T16:29:47.356748,-213.37890625,7.8125,-275.87890625,-268.06640625,0.0
2024-06-05T16:29:47.360556,-1000.0,-1000.0,-831.0546875,-799.8046875,0.0
2024-06-05T16:29:47.364364,-221.19140625,-237.79296875,586.9140625,225.09765625,0.0
2024-06-05T16:29:47.368172,-837.40234375,-827.63671875,-1000.0,-1000.0,0.0
2024-06-05T16:29:47.371980,241.69921875,241.69921875,-665.0390625,-271.484375,0.0
2024-06-05T16:29:47.375788,-1000.0,-1000.0,889.16015625,-840.8203125,0.0
2024-06-05T16:29:47.380981,-463.37890625,-562.01171875,-899.90234375,639.16015625,0.0
2024-06-05T16:29:47.384791,-886.71875,-939.94140625,-262.6953125,-989.2578125,0.0
2024-06-05T16:29:47.388601,349.609375,527.83203125,-1000.0,-725.5859375,0.0
2024-06-05T16:29:47.392411,-1000.0,-1000.0,185.546875,819.82421875,0.0
2024-06-05T16:29:47.396221,-915.52734375,-1000.0,-760.7421875,-869.140625,0.0
2024-06-05T16:29:47.400031,661.62109375,374.0234375,185.546875,-149.4140625,0.0
2024-06-05T16:29:47.403841,803.7109375,-945.3125,-1000.0,-1000.0,0.0
2024-06-05T16:29:47.407651,-750.48828125,-406.73828125,-271.484375,75.68359375,0.0
2024-06-05T16:29:47.411461,-1000.0,-1000.0,-803.22265625,-761.71875,0.0
2024-06-05T16:29:47.415271,-97.16796875,-201.66015625,289.55078125,192.87109375,0.0
2024-06-05T16:29:47.419081,-840.8203125,-836.9140625,-1000.0,-1000.0,0.0
2024-06-05T16:29:47.422891,-9.27734375,154.78515625,-357.421875,-273.4375,0.0
2024-06-05T16:29:47.428542,-1000.0,-1000.0,-890.13671875,-803.7109375,0.0
2024-06-05T16:29:47.432354,-234.375,-250.48828125,755.37109375,331.0546875,0.0
2024-06-05T16:29:47.436167,-830.078125,-820.80078125,-856.4453125,-1000.0,0.0
2024-06-05T16:29:47.439979,242.1875,238.28125,-830.56640625,-375.9765625,0.0
2024-06-05T16:29:47.443792,-1000.0,-1000.0,732.91015625,-927.734375,0.0
2024-06-05T16:29:47.447604,-560.546875,-662.109375,-851.5625,872.0703125,0.0
2024-06-05T16:29:47.451417,-931.640625,983.3984375,-152.34375,-663.0859375,0.0
2024-06-05T16:29:47.455229,437.01171875,632.8125,-1000.0,-972.16796875,0.0
2024-06-05T16:29:47.459042,-1000.0,-915.0390625,66.89453125,562.01171875,0.0
2024-06-05T16:29:47.462854,-1000.0,-1000.0,-762.6953125,-811.03515625,0.0
2024-06-05T16:29:47.466666,267.08984375,144.53125,193.84765625,-41.50390625,0.0
2024-06-05T16:29:47.470479,996.09375,-846.6796875,-1000.0,-1000.0,0.0
2024-06-05T16:29:47.475457,-506.8359375,-206.0546875,-276.85546875,-37.59765625,0.0
2024-06-05T16:29:47.479271,-1000.0,-1000.0,-810.546875,-768.5546875,0.0
2024-06-05T16:29:47.483085,-208.984375,-221.6796875,423.828125,202.63671875,0.0
2024-06-05T16:29:47.486899,-845.21484375,-832.03125,-1000.0,-1000.0,0.0
2024-06-05T16:29:47.490713,130.37109375,237.79296875,-480.95703125,-277.83203125,0.0
2024-06-05T16:29:47.494527,-1000.0,-1000.0,-958.984375,-819.3359375,0.0
2024-06-05T16:29:47.498341,-247.0703125,-367.1875,885.7421875,507.32421875,0.0
2024-06-05T16:29:47.502155,-822.75390625,-845.21484375,-670.41015625,-1000.0,0.0
2024-06-05T16:29:47.505969,234.375,335.9375,-968.26171875,-569.82421875,0.0
2024-06-05T16:29:47.509782,-1000.0,-1000.0,560.546875,971.19140625,0.0
2024-06-05T16:29:47.513596,-729.4921875,-879.8828125,-812.01171875,999.51171875,0.0
2024-06-05T16:29:47.517410,921.875,709.9609375,-12.6953125,-471.19140625,0.0
2024-06-05T16:29:47.522262,557.12890625,803.7109375,-1000.0,-1000.0,0.0
2024-06-05T16:29:47.526078,-971.19140625,-759.765625,-103.515625,379.8828125,0.0
2024-06-05T16:29:47.529893,-1000.0,-1000.0,-779.296875,-780.2734375,0.0
2024-06-05T16:29:47.533708,118.1640625,7.32421875,209.9609375,71.77734375,0.0
2024-06-05T16:29:47.537523,-849.609375,-824.70703125,-1000.0,-1000.0,0.0
2024-06-05T16:29:47.541339,-213.37890625,-41.015625,-276.85546875,-152.34375,0.0
2024-06-05T16:29:47.545154,-1000.0,-1000.0,-821.2890625,-780.76171875,0.0
2024-06-05T16:29:47.548969,-221.19140625,-234.375,525.87890625,213.37890625,0.0
2024-06-05T16:29:47.552784,-833.49609375,-829.1015625,-1000.0,-1000.0,0.0
2024-06-05T16:29:47.556600,238.28125,241.69921875,-580.078125,-275.87890625,0.0
2024-06-05T16:29:47.560415,-1000.0,-1000.0,970.703125,-834.47265625,0.0
2024-06-05T16:29:47.564230,-361.328125,-518.5546875,996.09375,613.76953125,0.0
2024-06-05T16:29:47.569002,-847.16796875,-913.0859375,-452.63671875,-1000.0,0.0
2024-06-05T16:29:47.572818,232.91015625,443.359375,-1000.0,-672.8515625,0.0
2024-06-05T16:29:47.576635,-1000.0,-1000.0,290.52734375,890.13671875,0.0
2024-06-05T16:29:47.580451,-901.85546875,-1000.0,-775.390625,-899.90234375,0.0
2024-06-05T16:29:47.584268,652.34375,445.3125,153.3203125,-263.18359375,0.0
2024-06-05T16:29:47.588084,813.4765625,-999.0234375,-1000.0,-1000.0,0.0
2024-06-05T16:29:47.591901,-759.765625,-503.41796875,-264.16015625,185.546875,0.0
2024-06-05T16:29:47.595717,-1000.0,-1000.0,-802.24609375,-760.7421875,0.0
2024-06-05T16:29:47.599534,14.6484375,-106.4453125,226.07421875,185.546875,0.0
2024-06-05T16:29:47.603350,-836.42578125,-818.84765625,-1000.0,-1000.0,0.0
2024-06-05T16:29:47.607167,-101.5625,104.00390625,-273.4375,-273.92578125,0.0
2024-06-05T16:29:47.610983,-1000.0,-1000.0,-834.47265625,-803.22265625,0.0
2024-06-05T16:29:47.615716,-228.515625,-248.046875,610.83984375,330.56640625,0.0
2024-06-05T16:29:47.619534,-834.9609375,-823.2421875,-1000.0,-1000.0,0.0
2024-06-05T16:29:47.623351,242.67578125,240.234375,-712.40234375,-379.8828125,0.0
2024-06-05T16:29:47.627169,-1000.0,-1000.0,835.9375,-892.08984375,0.0
2024-06-05T16:29:47.630987,-559.5703125,-641.11328125,-882.32421875,756.8359375,0.0
2024-06-05T16:29:47.634804,-935.05859375,-991.69921875,-194.3359375,-857.91015625,0.0
2024-06-05T16:29:47.638622,436.5234375,570.80078125,-1000.0,-830.078125,0.0
2024-06-05T16:29:47.642439,-1000.0,-965.33203125,91.30859375,733.3984375,0.0
2024-06-05T16:29:47.646257,-1000.0,-1000.0,-763.671875,-852.05078125,0.0
2024-06-05T16:29:47.650075,460.9375,226.5625,192.3828125,-151.3671875,0.0
2024-06-05T16:29:47.653892,945.80078125,-856.4453125,-1000.0,-1000.0,0.0
2024-06-05T16:29:47.657710,-587.40234375,-248.046875,-273.4375,57.6171875,0.0
2024-06-05T16:29:47.662332,-1000.0,-1000.0,-803.7109375,-764.16015625,0.0
2024-06-05T16:29:47.666151,-97.16796875,-220.703125,331.54296875,194.82421875,0.0
2024-06-05T16:29:47.669969,-833.49609375,-833.0078125,-1000.0,-1000.0,0.0
2024-06-05T16:29:47.673788,13.671875,237.3046875,-388.18359375,-277.34375,0.0
2024-06-05T16:29:47.677607,-1000.0,-1000.0,-910.64453125,-810.546875,0.0
2024-06-05T16:29:47.681425,-236.81640625,-343.26171875,802.734375,431.15234375,0.0
2024-06-05T16:29:47.685244,-830.56640625,-841.796875,-765.625,-1000.0,0.0
2024-06-05T16:29:47.689062,241.2109375,251.953125,-931.640625,-481.93359375,0.0
2024-06-05T16:29:47.692881,-1000.0,-1000.0,595.21484375,-958.0078125,0.0
2024-06-05T16:29:47.696700,-650.390625,-781.73828125,-818.359375,885.25390625,0.0
2024-06-05T16:29:47.700518,-995.1171875,824.21875,-43.9453125,-671.38671875,0.0
2024-06-05T16:29:47.704337,548.33984375,755.859375,-1000.0,-963.8671875,0.0
2024-06-05T16:29:47.708891,-978.515625,-813.4765625,-37.109375,554.19921875,0.0
2024-06-05T16:29:47.712711,-1000.0,-1000.0,-768.5546875,-806.15234375,0.0
2024-06-05T16:29:47.716530,253.90625,115.234375,202.63671875,55.6640625,0.0
2024-06-05T16:29:47.720350,-938.96484375,-822.75390625,-1000.0,-1000.0,0.0
2024-06-05T16:29:47.724169,-403.3203125,-111.81640625,-276.85546875,-148.4375,0.0
2024-06-05T16:29:47.727989,-1000.0,-1000.0,-814.94140625,-781.25,0.0
2024-06-05T16:29:47.731808,-209.47265625,-229.4921875,457.03125,213.37890625,0.0
2024-06-05T16:29:47.735628,-847.16796875,-831.0546875,-1000.0,-1000.0,0.0
2024-06-05T16:29:47.739447,140.13671875,241.2109375,-536.1328125,-275.87890625,0.0
2024-06-05T16:29:47.743267,-1000.0,-1000.0,985.83984375,-821.2890625,0.0
2024-06-05T16:29:47.747086,-346.6796875,-465.8203125,980.46875,525.87890625,0.0
2024-06-05T16:29:47.750906,-856.4453125,-887.6953125,-492.67578125,-1000.0,0.0
2024-06-05T16:29:47.755943,246.58203125,405.2734375,-1000.0,-571.2890625,0.0
2024-06-05T16:29:47.759764,-1000.0,-1000.0,379.39453125,950.68359375,0.0
2024-06-05T16:29:47.763585,-786.1328125,-914.0625,-780.76171875,-949.21875,0.0
2024-06-05T16:29:47.767406,845.703125,631.34765625,71.77734375,-333.0078125,0.0
2024-06-05T16:29:47.771226,656.25,930.6640625,-1000.0,-1000.0,0.0
2024-06-05T16:29:47.775048,-916.015625,-591.796875,-152.34375,234.86328125,0.0
2024-06-05T16:29:47.778868,-1000.0,-1000.0,-780.76171875,-766.11328125,0.0
2024-06-05T16:29:47.782689,111.81640625,-54.6875,213.37890625,184.5703125,0.0
2024-06-05T16:29:47.786510,-852.5390625,-825.1953125,-1000.0,-1000.0,0.0
2024-06-05T16:29:47.790331,-211.9140625,8.7890625,-275.87890625,-268.06640625,0.0
2024-06-05T16:29:47.794152,-1000.0,-1000.0,-831.54296875,-799.8046875,0.0
2024-06-05T16:29:47.797973,-220.703125,-237.3046875,589.84375,225.09765625,0.0
2024-06-05T16:29:47.802923,-837.890625,-827.63671875,-1000.0,-1000.0,0.0
2024-06-05T16:29:47.806746,241.69921875,242.1875,-667.48046875,-270.5078125,0.0
2024-06-05T16:29:47.810568,-1000.0,-1000.0,888.18359375,-843.75,0.0
2024-06-05T16:29:47.814390,-463.37890625,-562.01171875,-899.4140625,650.87890625,0.0
2024-06-05T16:29:47.818213,-886.71875,-940.4296875,-262.6953125,-970.21484375,0.0
2024-06-05T16:29:47.822035,349.12109375,536.62109375,-1000.0,-750.48828125,0.0
2024-06-05T16:29:47.825857,-1000.0,-993.1640625,185.546875,795.8984375,0.0
2024-06-05T16:29:47.829679,-915.52734375,-1000.0,-760.7421875,-864.74609375,0.0
2024-06-05T16:29:47.833502,661.1328125,364.2578125,185.546875,-150.390625,0.0
2024-06-05T16:29:47.837324,803.7109375,-945.3125,-1000.0,-1000.0,0.0
2024-06-05T16:29:47.841146,-750.9765625,-406.25,-271.97265625,75.68359375,0.0
2024-06-05T16:29:47.844968,-1000.0,-1000.0,-803.22265625,-761.71875,0.0
2024-06-05T16:29:47.849837,-99.12109375,-207.03125,291.015625,193.359375,0.0
2024-06-05T16:29:47.853660,-838.37890625,-838.37890625,-1000.0,-1000.0,0.0
2024-06-05T16:29:47.857484,4.8828125,159.1796875,-361.81640625,-273.4375,0.0
2024-06-05T16:29:47.861307,-1000.0,-1000.0,-891.11328125,-804.19921875,0.0
2024-06-05T16:29:47.865131,-235.83984375,-250.9765625,756.34765625,331.54296875,0.0
2024-06-05T16:29:47.868954,-829.1015625,-820.3125,-856.93359375,-1000.0,0.0
2024-06-05T16:29:47.872778,241.69921875,237.3046875,-830.56640625,-388.671875,0.0
2024-06-05T16:29:47.876601,-1000.0,-1000.0,733.3984375,-933.10546875,0.0
2024-06-05T16:29:47.880424,-560.546875,-679.6875,-851.5625,874.51171875,0.0
2024-06-05T16:29:47.884248,-931.640625,964.84375,-151.85546875,-664.0625,0.0
2024-06-05T16:29:47.888072,437.01171875,636.23046875,-1000.0,-971.6796875,0.0
2024-06-05T16:29:47.891895,-1000.0,-915.52734375,61.03515625,562.01171875,0.0
2024-06-05T16:29:47.896686,-1000.0,-1000.0,-763.671875,-811.03515625,0.0
2024-06-05T16:29:47.900510,259.765625,138.671875,194.82421875,-41.50390625,0.0
2024-06-05T16:29:47.904335,-982.421875,-845.703125,-1000.0,-1000.0,0.0
2024-06-05T16:29:47.908159,-473.14453125,-200.68359375,-277.34375,-37.59765625,0.0
2024-06-05T16:29:47.911984,-1000.0,-1000.0,-810.546875,-768.5546875,0.0
2024-06-05T16:29:47.915808,-209.47265625,-222.16796875,431.15234375,202.63671875,0.0
2024-06-05T16:29:47.919633,-844.23828125,-832.03125,-1000.0,-1000.0,0.0
2024-06-05T16:29:47.923458,130.37109375,237.79296875,-481.93359375,-277.83203125,0.0
2024-06-05T16:29:47.927282,-1000.0,-1000.0,-958.0078125,-820.3125,0.0
2024-06-05T16:29:47.931107,-247.0703125,-367.1875,885.25390625,514.16015625,0.0
2024-06-05T16:29:47.934931,-822.75390625,-845.21484375,-670.41015625,-1000.0,0.0
2024-06-05T16:29:47.938756,233.3984375,335.9375,-967.7734375,-578.125,0.0
2024-06-05T16:29:47.943473,-1000.0,-1000.0,560.546875,968.26171875,0.0
2024-06-05T16:29:47.947298,-746.58203125,-879.8828125,-812.5,-999.51171875,0.0
2024-06-05T16:29:47.951124,900.87890625,710.44921875,-9.765625,-471.6796875,0.0
2024-06-05T16:29:47.954950,571.2890625,803.7109375,-1000.0,-1000.0,0.0
2024-06-05T16:29:47.958775,-965.33203125,-759.765625,-113.28125,379.39453125,0.0
2024-06-05T16:29:47.962601,-1000.0,-1000.0,-780.76171875,-780.2734375,0.0
2024-06-05T16:29:47.966426,119.140625,7.32421875,210.9375,71.77734375,0.0
2024-06-05T16:29:47.970252,-849.12109375,-824.21875,-1000.0,-1000.0,0.0
2024-06-05T16:29:47.974077,-213.37890625,-38.0859375,-276.3671875,-152.34375,0.0
2024-06-05T16:29:47.977903,-1000.0,-1000.0,-821.2890625,-780.76171875,0.0
2024-06-05T16:29:47.981729,-221.19140625,-234.375,525.87890625,213.37890625,0.0
2024-06-05T16:29:47.985554,-834.47265625,-829.1015625,-1000.0,-1000.0,0.0
2024-06-05T16:29:47.990215,238.76953125,241.69921875,-578.61328125,-275.87890625,0.0
2024-06-05T16:29:47.994041,-1000.0,-1000.0,966.796875,-834.47265625,0.0
2024-06-05T16:29:47.997868,-379.8828125,-522.94921875,-994.140625,613.76953125,0.0
2024-06-05T16:29:48.001694,-855.46875,-915.52734375,-431.640625,-1000.0,0.0
2024-06-05T16:29:48.005521,235.83984375,444.3359375,-1000.0,-672.8515625,0.0
2024-06-05T16:29:48.009347,-1000.0,-1000.0,281.73828125,889.6484375,0.0
2024-06-05T16:29:48.013174,-901.3671875,-1000.0,-773.92578125,-899.90234375,0.0
2024-06-05T16:29:48.017000,652.34375,446.2890625,161.1328125,-262.6953125,0.0
2024-06-05T16:29:48.020827,813.4765625,999.0234375,-1000.0,-1000.0,0.0
2024-06-05T16:29:48.024654,-759.765625,-506.34765625,-265.13671875,185.546875,0.0
2024-06-05T16:29:48.028480,-1000.0,-1000.0,-801.7578125,-760.7421875,0.0
2024-06-05T16:29:48.032307,14.6484375,-106.93359375,225.5859375,185.546875,0.0
2024-06-05T16:29:48.037408,-836.42578125,-818.359375,-1000.0,-1000.0,0.0
2024-06-05T16:29:48.041236,-101.07421875,107.91015625,-272.94921875,-274.4140625,0.0
2024-06-05T16:29:48.045064,-1000.0,-1000.0,-833.984375,-803.22265625,0.0
2024-06-05T16:29:48.048892,-228.02734375,-248.53515625,610.3515625,331.0546875,0.0
2024-06-05T16:29:48.052720,-834.9609375,-823.2421875,-1000.0,-1000.0,0.0
2024-06-05T16:29:48.056548,243.1640625,240.234375,-716.30859375,-379.8828125,0.0
2024-06-05T16:29:48.060376,-1000.0,-1000.0,829.58984375,-892.08984375,0.0
2024-06-05T16:29:48.064204,-560.05859375,-649.90234375,-878.90625,756.8359375,0.0
2024-06-05T16:29:48.068032,-935.05859375,-998.046875,-185.546875,-857.91015625,0.0
2024-06-05T16:29:48.071860,450.1953125,578.125,-1000.0,-829.58984375,0.0
2024-06-05T16:29:48.075687,-1000.0,-962.890625,88.8671875,732.421875,0.0
2024-06-05T16:29:48.079515,-1000.0,-1000.0,-763.18359375,-851.07421875,0.0
2024-06-05T16:29:48.084536,462.40234375,227.5390625,192.3828125,-141.6015625,0.0
2024-06-05T16:29:48.088365,945.3125,-856.93359375,-1000.0,-1000.0,0.0
2024-06-05T16:29:48.092195,-587.40234375,-250.0,-273.4375,47.36328125,0.0
2024-06-05T16:29:48.096024,-1000.0,-1000.0,-804.19921875,-764.6484375,0.0
2024-06-05T16:29:48.099853,-97.16796875,-220.703125,331.54296875,195.80078125,0.0
2024-06-05T16:29:48.103682,-833.49609375,-833.49609375,-1000.0,-1000.0,0.0
2024-06-05T16:29:48.107511,13.671875,237.79296875,-392.578125,-277.34375,0.0
2024-06-05T16:29:48.111341,-1000.0,-1000.0,-915.0390625,-810.546875,0.0
2024-06-05T16:29:48.115170,-236.81640625,-349.609375,812.01171875,431.15234375,0.0
2024-06-05T16:29:48.118999,-830.56640625,-844.23828125,-753.41796875,-1000.0,0.0
2024-06-05T16:29:48.122828,241.69921875,256.34765625,-937.98828125,-481.93359375,0.0
2024-06-05T16:29:48.126657,-1000.0,-1000.0,588.37890625,-958.0078125,0.0
2024-06-05T16:29:48.131570,-650.390625,-781.73828125,-816.89453125,885.25390625,0.0
2024-06-05T16:29:48.135401,-994.62890625,823.2421875,-41.015625,-671.38671875,0.0
2024-06-05T16:29:48.139231,548.33984375,761.23046875,-1000.0,-963.8671875,0.0
2024-06-05T16:29:48.143061,-978.515625,-806.640625,-37.59765625,551.7578125,0.0
2024-06-05T16:29:48.146892,-1000.0,-1000.0,-768.5546875,-804.6875,0.0
2024-06-05T16:29:48.150722,253.90625,112.3046875,202.63671875,65.91796875,0.0
2024-06-05T16:29:48.154552,-938.96484375,-823.2421875,-1000.0,-1000.0,0.0
2024-06-05T16:29:48.158383,-403.3203125,-111.328125,-276.85546875,-151.85546875,0.0
2024-06-05T16:29:48.162213,-1000.0,-1000.0,-815.4296875,-781.25,0.0
2024-06-05T16:29:48.166044,-210.9375,-229.4921875,463.37890625,213.37890625,0.0
2024-06-05T16:29:48.169874,-845.703125,-831.0546875,-1000.0,-1000.0,0.0
2024-06-05T16:29:48.173704,160.64453125,241.2109375,-542.48046875,-275.87890625,0.0
2024-06-05T16:29:48.178540,-1000.0,-1000.0,981.4453125,-821.2890625,0.0
2024-06-05T16:29:48.182372,-349.609375,-465.8203125,985.83984375,525.87890625,0.0
2024-06-05T16:29:48.186203,-854.98046875,-888.18359375,-485.83984375,-1000.0,0.0
2024-06-05T16:29:48.190034,246.09375,413.57421875,-1000.0,-569.82421875,0.0
2024-06-05T16:29:48.193866,-1000.0,-1000.0,379.39453125,946.77734375,0.0
2024-06-05T16:29:48.197697,-786.1328125,-915.52734375,-780.76171875,-938.4765625,0.0
2024-06-05T16:29:48.201529,846.19140625,632.32421875,71.77734375,-307.12890625,0.0
2024-06-05T16:29:48.205360,654.296875,930.17578125,-1000.0,-1000.0,0.0
2024-06-05T16:29:48.209192,-912.59765625,-591.30859375,-152.34375,217.28515625,0.0
2024-06-05T16:29:48.213023,-1000.0,-1000.0,-780.76171875,-764.16015625,0.0
2024-06-05T16:29:48.216854,83.984375,-60.05859375,213.37890625,185.05859375,0.0
2024-06-05T16:29:48.220686,-856.4453125,-826.171875,-1000.0,-1000.0,0.0
2024-06-05T16:29:48.225449,-208.984375,9.27734375,-275.87890625,-268.06640625,0.0
2024-06-05T16:29:48.229281,-1000.0,-1000.0,-832.03125,-799.8046875,0.0
2024-06-05T16:29:48.233113,-220.703125,-237.3046875,595.21484375,225.09765625,0.0
2024-06-05T16:29:48.236946,-837.890625,-827.63671875,-1000.0,-1000.0,0.0
2024-06-05T16:29:48.240778,241.69921875,242.1875,-668.9453125,-269.04296875,0.0
2024-06-05T16:29:48.244611,-1000.0,-1000.0,888.18359375,-848.6328125,0.0
2024-06-05T16:29:48.248443,-463.37890625,-562.01171875,-899.4140625,671.38671875,0.0
2024-06-05T16:29:48.252275,-886.71875,-939.94140625,-263.18359375,-942.3828125,0.0
2024-06-05T16:29:48.256108,349.12109375,531.25,-1000.0,-771.97265625,0.0
2024-06-05T16:29:48.259940,-1000.0,-992.67578125,185.546875,778.80859375,0.0
2024-06-05T16:29:48.263772,-915.52734375,-1000.0,-760.7421875,-860.83984375,0.0
2024-06-05T16:29:48.267605,661.1328125,349.12109375,185.546875,-151.3671875,0.0
2024-06-05T16:29:48.272298,803.7109375,-944.82421875,-1000.0,-1000.0,0.0
2024-06-05T16:29:48.276131,-750.9765625,-405.2734375,-271.97265625,75.68359375,0.0
2024-06-05T16:29:48.279964,-1000.0,-1000.0,-803.7109375,-761.71875,0.0
2024-06-05T16:29:48.283798,-100.5859375,-212.40234375,299.31640625,192.87109375,0.0
2024-06-05T16:29:48.287631,-836.9140625,-838.37890625,-1000.0,-1000.0,0.0
2024-06-05T16:29:48.291464,13.671875,171.38671875,-371.09375,-273.92578125,0.0
2024-06-05T16:29:48.295297,-1000.0,-1000.0,-893.5546875,-805.6640625,0.0
2024-06-05T16:29:48.299131,-236.81640625,-252.44140625,757.32421875,348.6328125,0.0
2024-06-05T16:29:48.302964,-828.125,-819.3359375,-857.91015625,-1000.0,0.0
2024-06-05T16:29:48.306797,243.1640625,237.79296875,-830.078125,-409.66796875,0.0
2024-06-05T16:29:48.310631,-1000.0,-1000.0,733.3984375,-939.453125,0.0
2024-06-05T16:29:48.314464,-541.9921875,-671.38671875,-852.5390625,876.953125,0.0
2024-06-05T16:29:48.319091,-987.79296875,897.4609375,-149.90234375,-665.52734375,0.0
2024-06-05T16:29:48.322925,348.6328125,549.8046875,-1000.0,-971.19140625,0.0
2024-06-05T16:29:48.326759,-1000.0,-904.78515625,49.31640625,562.01171875,0.0
2024-06-05T16:29:48.330593,-1000.0,-1000.0,-765.13671875,-811.03515625,0.0
2024-06-05T16:29:48.334427,251.46484375,130.37109375,195.80078125,-41.50390625,0.0
2024-06-05T16:29:48.338261,-961.9140625,-841.796875,-1000.0,-1000.0,0.0
2024-06-05T16:29:48.342095,-441.89453125,-184.08203125,-277.34375,-37.59765625,0.0
2024-06-05T16:29:48.345929,-1000.0,-1000.0,-810.546875,-768.5546875,0.0
2024-06-05T16:29:48.349763,-208.984375,-223.6328125,431.15234375,202.63671875,0.0
2024-06-05T16:29:48.353597,-843.26171875,-831.54296875,-1000.0,-1000.0,0.0
2024-06-05T16:29:48.357431,130.37109375,238.28125,-481.93359375,-277.83203125,0.0
2024-06-05T16:29:48.361265,-1000.0,-1000.0,-958.0078125,-821.2890625,0.0
2024-06-05T16:29:48.365829,-247.0703125,-377.9296875,884.27734375,525.87890625,0.0
2024-06-05T16:29:48.369664,-822.75390625,-849.609375,-668.9453125,-1000.0,0.0
2024-06-05T16:29:48.373498,230.46875,336.42578125,-973.6328125,-580.078125,0.0
2024-06-05T16:29:48.377333,-1000.0,-1000.0,547.8515625,969.23828125,0.0
2024-06-05T16:29:48.381168,-789.0625,-891.6015625,-809.5703125,-999.51171875,0.0
2024-06-05T16:29:48.385003,852.05078125,692.3828125,7.32421875,-471.6796875,0.0
2024-06-05T16:29:48.388838,604.4921875,811.03515625,-1000.0,-1000.0,0.0
2024-06-05T16:29:48.392673,-951.66015625,-753.90625,-118.1640625,379.39453125,0.0
2024-06-05T16:29:48.396508,-1000.0,-1000.0,-780.2734375,-780.2734375,0.0
2024-06-05T16:29:48.400342,121.09375,6.34765625,211.42578125,71.77734375,0.0
2024-06-05T16:29:48.404177,-850.09765625,-822.265625,-1000.0,-1000.0,0.0
2024-06-05T16:29:48.408012,-213.37890625,-30.76171875,-276.85546875,-152.34375,0.0
2024-06-05T16:29:48.412515,-1000.0,-1000.0,-821.2890625,-780.76171875,0.0
2024-06-05T16:29:48.416351,-221.19140625,-235.3515625,525.87890625,213.37890625,0.0
2024-06-05T16:29:48.420186,-835.9375,-828.61328125,-1000.0,-1000.0,0.0
2024-06-05T16:29:48.424021,240.234375,241.69921875,-576.66015625,-275.87890625,0.0
2024-06-05T16:29:48.427857,-1000.0,-1000.0,963.37890625,-834.47265625,0.0
2024-06-05T16:29:48.431693,-417.48046875,-529.296875,-984.375,613.76953125,0.0
2024-06-05T16:29:48.435528,-871.58203125,-918.9453125,-405.2734375,-1000.0,0.0
2024-06-05T16:29:48.439363,242.67578125,445.3125,-1000.0,-672.8515625,0.0
2024-06-05T16:29:48.443199,-1000.0,-1000.0,257.32421875,890.13671875,0.0
2024-06-05T16:29:48.447035,-900.390625,-1000.0,-770.99609375,-899.90234375,0.0
2024-06-05T16:29:48.450870,651.85546875,442.3828125,168.45703125,-262.6953125,0.0
2024-06-05T16:29:48.454705,813.4765625,-989.2578125,-1000.0,-1000.0,0.0
2024-06-05T16:29:48.459151,-759.765625,-488.28125,-266.11328125,185.546875,0.0
2024-06-05T16:29:48.462987,-1000.0,-1000.0,-801.26953125,-760.7421875,0.0
2024-06-05T16:29:48.466824,14.6484375,-107.91015625,225.5859375,185.546875,0.0
2024-06-05T16:29:48.470659,-836.9140625,-816.89453125,-1000.0,-1000.0,0.0
2024-06-05T16:29:48.474496,-101.5625,116.2109375,-272.94921875,-273.92578125,0.0
2024-06-05T16:29:48.478332,-1000.0,-1000.0,-835.44921875,-803.22265625,0.0
2024-06-05T16:29:48.482168,-228.02734375,-249.51171875,614.74609375,331.0546875,0.0
2024-06-05T16:29:48.486004,-834.9609375,-822.75390625,-1000.0,-1000.0,0.0
2024-06-05T16:29:48.489840,243.1640625,239.74609375,-735.3515625,-379.8828125,0.0
2024-06-05T16:29:48.493676,-1000.0,-1000.0,809.08203125,-892.08984375,0.0
2024-06-05T16:29:48.497512,-560.05859375,-649.90234375,-874.51171875,756.8359375,0.0
2024-06-05T16:29:48.501348,-935.546875,-999.0234375,-178.7109375,-858.3984375,0.0
2024-06-05T16:29:48.506197,451.171875,585.9375,-1000.0,-828.125,0.0
2024-06-05T16:29:48.510034,-1000.0,-958.0078125,78.125,730.46875,0.0
2024-06-05T16:29:48.513871,-1000.0,-1000.0,-763.671875,-849.12109375,0.0
2024-06-05T16:29:48.517709,461.9140625,226.5625,193.359375,-118.65234375,0.0
2024-06-05T16:29:48.521545,945.3125,-852.5390625,-1000.0,-1000.0,0.0
2024-06-05T16:29:48.525383,-587.40234375,-241.2109375,-273.4375,22.4609375,0.0
2024-06-05T16:29:48.529220,-1000.0,-1000.0,-804.6875,-766.6015625,0.0
2024-06-05T16:29:48.533057,-97.16796875,-221.19140625,332.03125,198.2421875,0.0
2024-06-05T16:29:48.536894,-833.49609375,-833.0078125,-1000.0,-1000.0,0.0
2024-06-05T16:29:48.540731,13.671875,237.79296875,-403.80859375,-276.85546875,0.0
2024-06-05T16:29:48.544568,-1000.0,-1000.0,-924.8046875,-810.546875,0.0
2024-06-05T16:29:48.548405,-236.81640625,-354.4921875,828.61328125,431.15234375,0.0
2024-06-05T16:29:48.553184,-831.0546875,-845.21484375,-733.3984375,-1000.0,0.0
2024-06-05T16:29:48.557022,241.2109375,270.99609375,-946.77734375,-481.93359375,0.0
2024-06-05T16:29:48.560859,-1000.0,-1000.0,580.078125,-957.51953125,0.0
2024-06-05T16:29:48.564698,-649.90234375,-783.203125,-814.94140625,883.30078125,0.0
2024-06-05T16:29:48.568536,-995.1171875,821.2890625,-41.015625,-666.50390625,0.0
2024-06-05T16:29:48.572373,547.8515625,773.92578125,-1000.0,-979.98046875,0.0
2024-06-05T16:29:48.576211,-978.515625,-789.55078125,-37.59765625,526.3671875,0.0
2024-06-05T16:29:48.580049,-1000.0,-1000.0,-768.5546875,-801.26953125,0.0
2024-06-05T16:29:48.583887,253.41796875,99.609375,202.63671875,71.77734375,0.0
2024-06-05T16:29:48.587725,-939.453125,-824.70703125,-1000.0,-1000.0,0.0
2024-06-05T16:29:48.591563,-403.3203125,-109.86328125,-276.85546875,-152.34375,0.0
2024-06-05T16:29:48.595401,-1000.0,-1000.0,-816.40625,-780.76171875,0.0
2024-06-05T16:29:48.600113,-213.37890625,-229.00390625,474.12109375,213.37890625,0.0
2024-06-05T16:29:48.603951,-843.26171875,-831.0546875,-1000.0,-1000.0,0.0
2024-06-05T16:29:48.607790,191.89453125,241.2109375,-565.4296875,-275.87890625,0.0
2024-06-05T16:29:48.611629,-1000.0,-1000.0,-987.79296875,-821.2890625,0.0
2024-06-05T16:29:48.615468,-354.4921875,-466.30859375,892.08984375,525.87890625,0.0
2024-06-05T16:29:48.619307,-852.5390625,-888.671875,-652.34375,-1000.0,0.0
2024-06-05T16:29:48.623145,245.1171875,419.43359375,-1000.0,-567.87109375,0.0
2024-06-05T16:29:48.626984,-1000.0,-1000.0,381.34765625,942.87109375,0.0
2024-06-05T16:29:48.630823,-786.1328125,-916.50390625,-786.1328125,-927.24609375,0.0
2024-06-05T16:29:48.634662,846.6796875,632.8125,71.77734375,-275.87890625,0.0
2024-06-05T16:29:48.638501,651.85546875,929.19921875,-1000.0,-1000.0,0.0
2024-06-05T16:29:48.642339,-908.69140625,-590.8203125,-152.34375,186.03515625,0.0
2024-06-05T16:29:48.647431,-1000.0,-1000.0,-780.76171875,-761.23046875,0.0
2024-06-05T16:29:48.651271,47.8515625,-66.40625,213.37890625,185.546875,0.0
2024-06-05T16:29:48.655111,-858.3984375,-827.1484375,-1000.0,-1000.0,0.0
2024-06-05T16:29:48.658951,-194.3359375,10.25390625,-275.87890625,-268.06640625,0.0
2024-06-05T16:29:48.662791,-1000.0,-1000.0,-833.0078125,-799.8046875,0.0
2024-06-05T16:29:48.666631,-221.19140625,-237.3046875,602.05078125,225.09765625,0.0
2024-06-05T16:29:48.670471,-836.9140625,-827.63671875,-1000.0,-1000.0,0.0
2024-06-05T16:29:48.674311,241.69921875,242.1875,-670.41015625,-267.08984375,0.0
2024-06-05T16:29:48.678151,-1000.0,-1000.0,889.16015625,-855.95703125,0.0
2024-06-05T16:29:48.681991,-463.37890625,-562.01171875,-899.4140625,702.1484375,0.0
2024-06-05T16:29:48.685831,-886.23046875,-939.94140625,-262.6953125,-904.296875,0.0
2024-06-05T16:29:48.689671,346.6796875,536.1328125,-1000.0,-793.45703125,0.0
2024-06-05T16:29:48.694243,-1000.0,-986.328125,185.546875,763.671875,0.0
2024-06-05T16:29:48.698084,-940.91796875,-1000.0,-760.25390625,-857.421875,0.0
2024-06-05T16:29:48.701925,622.0703125,332.51953125,185.546875,-151.85546875,0.0
2024-06-05T16:29:48.705765,808.10546875,-943.84765625,-1000.0,-1000.0,0.0
2024-06-05T16:29:48.709606,-750.9765625,-405.2734375,-272.94921875,75.68359375,0.0
2024-06-05T16:29:48.713447,-1000.0,-1000.0,-803.7109375,-761.71875,0.0
2024-06-05T16:29:48.717287,-100.09765625,-213.37890625,308.10546875,193.359375,0.0
2024-06-05T16:29:48.721128,-836.42578125,-837.890625,-1000.0,-1000.0,0.0
2024-06-05T16:29:48.724969,13.671875,182.12890625,-375.9765625,-275.390625,0.0
2024-06-05T16:29:48.728809,-1000.0,-1000.0,-894.04296875,-807.12890625,0.0
2024-06-05T16:29:48.732650,-236.81640625,-254.39453125,757.32421875,373.046875,0.0
2024-06-05T16:29:48.736490,-828.125,-818.359375,-857.91015625,-1000.0,0.0
2024-06-05T16:29:48.741005,241.69921875,234.86328125,-830.078125,-429.19921875,0.0
2024-06-05T16:29:48.744847,-1000.0,-1000.0,733.88671875,-944.3359375,0.0
2024-06-05T16:29:48.748688,-560.546875,-708.49609375,-853.02734375,879.39453125,0.0
2024-06-05T16:29:48.752529,-931.640625,933.59375,-148.92578125,-666.9921875,0.0
2024-06-05T16:29:48.756370,437.01171875,641.6015625,-1000.0,-970.703125,0.0
2024-06-05T16:29:48.760212,-1000.0,-915.52734375,39.55078125,562.01171875,0.0
2024-06-05T16:29:48.764053,-1000.0,-1000.0,-766.6015625,-811.03515625,0.0
2024-06-05T16:29:48.767894,246.09375,124.51171875,197.265625,-41.50390625,0.0
2024-06-05T16:29:48.771735,-937.01171875,-840.8203125,-1000.0,-1000.0,0.0
2024-06-05T16:29:48.775577,-403.80859375,-178.22265625,-276.85546875,-37.59765625,0.0
2024-06-05T16:29:48.779418,-1000.0,-1000.0,-810.546875,-768.5546875,0.0
2024-06-05T16:29:48.783259,-209.47265625,-223.6328125,431.15234375,202.63671875,0.0
2024-06-05T16:29:48.787718,-842.28515625,-831.54296875,-1000.0,-1000.0,0.0
2024-06-05T16:29:48.791560,130.859375,238.76953125,-481.93359375,-278.3203125,0.0
2024-06-05T16:29:48.795402,-1000.0,-1000.0,-957.51953125,-821.2890625,0.0
2024-06-05T16:29:48.799244,-247.0703125,-387.6953125,882.32421875,525.87890625,0.0
2024-06-05T16:29:48.803086,-822.75390625,-854.00390625,-663.57421875,-1000.0,0.0
2024-06-05T16:29:48.806927,230.46875,337.40234375,-990.234375,-580.078125,0.0
2024-06-05T16:29:48.810769,-1000.0,-1000.0,520.5078125,969.23828125,0.0
2024-06-05T16:29:48.814611,-789.0625,-898.92578125,-805.6640625,-1000.0,0.0
2024-06-05T16:29:48.818453,848.6328125,673.33984375,18.5546875,-471.6796875,0.0
2024-06-05T16:29:48.822294,630.859375,837.40234375,-1000.0,-1000.0,0.0
2024-06-05T16:29:48.826136,-935.05859375,-722.16796875,-130.37109375,379.39453125,0.0
2024-06-05T16:29:48.829978,-1000.0,-1000.0,-781.25,-780.2734375,0.0
2024-06-05T16:29:48.834384,123.046875,5.859375,212.40234375,71.77734375,0.0
2024-06-05T16:29:48.838226,-850.5859375,-820.3125,-1000.0,-1000.0,0.0
2024-06-05T16:29:48.842069,-213.37890625,-22.94921875,-276.3671875,-152.83203125,0.0
2024-06-05T16:29:48.845911,-1000.0,-1000.0,-821.2890625,-780.76171875,0.0
2024-06-05T16:29:48.849753,-221.19140625,-236.328125,525.87890625,212.890625,0.0
2024-06-05T16:29:48.853595,-836.9140625,-828.125,-1000.0,-1000.0,0.0
2024-06-05T16:29:48.857438,241.2109375,241.69921875,-577.1484375,-275.87890625,0.0
2024-06-05T16:29:48.861280,-1000.0,-1000.0,958.984375,-834.47265625,0.0
2024-06-05T16:29:48.865123,-446.77734375,-536.62109375,-975.09765625,613.76953125,0.0
2024-06-05T16:29:48.868965,-882.8125,-922.8515625,-383.30078125,-1000.0,0.0
2024-06-05T16:29:48.872807,276.85546875,448.2421875,-1000.0,-672.36328125,0.0
2024-06-05T16:29:48.876649,-1000.0,-1000.0,241.69921875,889.6484375,0.0
2024-06-05T16:29:48.881399,-904.296875,-1000.0,-769.04296875,-899.90234375,0.0
2024-06-05T16:29:48.885243,654.78515625,439.94140625,174.31640625,-262.6953125,0.0
2024-06-05T16:29:48.889086,812.5,-980.46875,-1000.0,-1000.0,0.0
2024-06-05T16:29:48.892929,-759.765625,-475.09765625,-266.6015625,185.546875,0.0
2024-06-05T16:29:48.896772,-1000.0,-1000.0,-800.78125,-760.7421875,0.0
2024-06-05T16:29:48.900615,14.6484375,-107.91015625,225.5859375,185.05859375,0.0
2024-06-05T16:29:48.904458,-836.42578125,-816.40625,-1000.0,-1000.0,0.0
2024-06-05T16:29:48.908301,-101.5625,116.2109375,-271.97265625,-274.4140625,0.0
2024-06-05T16:29:48.912144,-1000.0,-1000.0,-839.35546875,-803.22265625,0.0
2024-06-05T16:29:48.915988,-228.02734375,-249.51171875,631.34765625,331.0546875,0.0
2024-06-05T16:29:48.919831,-834.9609375,-822.265625,-988.28125,-1000.0,0.0
2024-06-05T16:29:48.923674,243.1640625,239.74609375,-754.39453125,-379.8828125,0.0
2024-06-05T16:29:48.928361,-1000.0,-1000.0,791.015625,-892.08984375,0.0
2024-06-05T16:29:48.932204,-560.546875,-649.90234375,-868.65234375,756.8359375,0.0
2024-06-05T16:29:48.936048,-935.546875,-1000.0,-170.41015625,-858.88671875,0.0
2024-06-05T16:29:48.939892,451.171875,594.23828125,-1000.0,-826.66015625,0.0
2024-06-05T16:29:48.943736,-1000.0,-953.125,77.1484375,728.02734375,0.0
2024-06-05T16:29:48.947580,-1000.0,-1000.0,-763.18359375,-845.703125,0.0
2024-06-05T16:29:48.951424,461.9140625,224.12109375,193.359375,-95.703125,0.0
2024-06-05T16:29:48.955268,945.3125,-843.75,-1000.0,-1000.0,0.0
2024-06-05T16:29:48.959111,-587.40234375,-224.609375,-273.4375,4.39453125,0.0
2024-06-05T16:29:48.962955,-1000.0,-1000.0,-805.17578125,-767.08984375,0.0
2024-06-05T16:29:48.966799,-97.16796875,-221.6796875,332.51953125,199.70703125,0.0
2024-06-05T16:29:48.970643,-833.49609375,-833.0078125,-1000.0,-1000.0,0.0
2024-06-05T16:29:48.975269,13.671875,238.28125,-412.59765625,-276.85546875,0.0
2024-06-05T16:29:48.979114,-1000.0,-1000.0,-932.12890625,-810.546875,0.0
2024-06-05T16:29:48.982958,-236.81640625,-363.28125,841.30859375,431.15234375,0.0
2024-06-05T16:29:48.986803,-830.56640625,-847.65625,-714.84375,-1000.0,0.0
2024-06-05T16:29:48.990647,241.69921875,283.69140625,-961.42578125,-479.98046875,0.0
2024-06-05T16:29:48.994492,-1000.0,-1000.0,564.453125,-962.890625,0.0
2024-06-05T16:29:48.998337,-650.390625,-784.66796875,-812.01171875,899.90234375,0.0
2024-06-05T16:29:49.002181,-995.1171875,821.77734375,-41.50390625,-628.41796875,0.0
2024-06-05T16:29:49.006026,548.33984375,776.3671875,-1000.0,-1000.0,0.0
2024-06-05T16:29:49.009870,-978.515625,-784.66796875,-37.59765625,485.3515625,0.0
2024-06-05T16:29:49.013715,-1000.0,-1000.0,-768.5546875,-795.8984375,0.0
2024-06-05T16:29:49.017559,253.90625,86.9140625,202.63671875,71.77734375,0.0
2024-06-05T16:29:49.022127,-939.453125,-826.66015625,-1000.0,-1000.0,0.0
2024-06-05T16:29:49.025972,-403.80859375,-108.88671875,-277.34375,-152.34375,0.0
2024-06-05T16:29:49.029817,-1000.0,-1000.0,-817.3828125,-780.76171875,0.0
2024-06-05T16:29:49.033663,-215.33203125,-229.00390625,484.86328125,213.37890625,0.0
2024-06-05T16:29:49.037508,-841.796875,-831.0546875,-1000.0,-1000.0,0.0
2024-06-05T16:29:49.041353,214.84375,241.2109375,-559.5703125,-275.87890625,0.0
2024-06-05T16:29:49.045198,-1000.0,-1000.0,972.65625,-821.2890625,0.0
2024-06-05T16:29:49.049043,-357.421875,-466.30859375,999.0234375,525.87890625,0.0
2024-06-05T16:29:49.052888,-850.5859375,-888.18359375,-470.703125,-1000.0,0.0
2024-06-05T16:29:49.056734,244.62890625,423.33984375,-1000.0,-575.68359375,0.0
2024-06-05T16:29:49.060579,-1000.0,-1000.0,379.39453125,933.10546875,0.0
2024-06-05T16:29:49.064424,-786.1328125,-929.6875,-780.76171875,-914.55078125,0.0
2024-06-05T16:29:49.068936,847.65625,615.234375,72.75390625,-256.8359375,0.0
2024-06-05T16:29:49.072782,649.90234375,930.6640625,-1000.0,-1000.0,0.0
2024-06-05T16:29:49.076627,-906.25,-589.84375,-161.1328125,185.546875,0.0
2024-06-05T16:29:49.080473,-1000.0,-1000.0,-783.203125,-760.7421875,0.0
2024-06-05T16:29:49.084319,16.6015625,-78.125,214.35546875,185.546875,0.0
2024-06-05T16:29:49.088165,-852.5390625,-827.63671875,-1000.0,-1000.0,0.0
2024-06-05T16:29:49.092010,-157.71484375,20.5078125,-275.87890625,-268.06640625,0.0
2024-06-05T16:29:49.095856,-1000.0,-1000.0,-833.984375,-799.8046875,0.0
2024-06-05T16:29:49.099702,-223.6328125,-238.28125,608.88671875,225.09765625,0.0
2024-06-05T16:29:49.103548,-834.9609375,-827.1484375,-1000.0,-1000.0,0.0
2024-06-05T16:29:49.107394,241.2109375,241.69921875,-671.38671875,-265.625,0.0
2024-06-05T16:29:49.111239,-1000.0,-1000.0,889.6484375,-860.83984375,0.0
2024-06-05T16:29:49.115698,-463.37890625,-562.01171875,-899.90234375,721.19140625,0.0
2024-06-05T16:29:49.119544,-884.765625,-939.453125,-262.6953125,-876.46484375,0.0
2024-06-05T16:29:49.123390,341.30859375,535.15625,-1000.0,-820.80078125,0.0
2024-06-05T16:29:49.127237,-1000.0,-982.91015625,185.546875,739.74609375,0.0
2024-06-05T16:29:49.131083,-986.81640625,-1000.0,-760.7421875,-852.5390625,0.0
2024-06-05T16:29:49.134929,551.26953125,314.94140625,185.546875,-153.3203125,0.0
2024-06-05T16:29:49.138776,815.91796875,-942.3828125,-1000.0,-1000.0,0.0
2024-06-05T16:29:49.142622,-750.9765625,-404.78515625,-273.4375,75.68359375,0.0
2024-06-05T16:29:49.146468,-1000.0,-1000.0,-803.22265625,-761.71875,0.0
2024-06-05T16:29:49.150314,-100.09765625,-214.35546875,316.89453125,193.359375,0.0
2024-06-05T16:29:49.154160,-836.42578125,-837.40234375,-1000.0,-1000.0,0.0
2024-06-05T16:29:49.158007,13.671875,191.40625,-377.44140625,-275.87890625,0.0
2024-06-05T16:29:49.162414,-1000.0,-1000.0,-893.06640625,-808.59375,0.0
2024-06-05T16:29:49.166261,-236.81640625,-255.37109375,757.32421875,395.01953125,0.0
2024-06-05T16:29:49.170108,-829.1015625,-817.87109375,-857.91015625,-1000.0,0.0
2024-06-05T16:29:49.173954,241.69921875,233.3984375,-829.1015625,-453.61328125,0.0
2024-06-05T16:29:49.177801,-1000.0,-1000.0,732.421875,-951.171875,0.0
2024-06-05T16:29:49.181648,-581.0546875,-724.12109375,-852.05078125,882.32421875,0.0
2024-06-05T16:29:49.185495,-944.82421875,916.50390625,-135.7421875,-668.45703125,0.0
2024-06-05T16:29:49.189341,440.91796875,644.04296875,-1000.0,-970.21484375,0.0
2024-06-05T16:29:49.193188,-1000.0,-916.015625,21.97265625,562.01171875,0.0
2024-06-05T16:29:49.197035,-1000.0,-1000.0,-768.06640625,-811.03515625,0.0
2024-06-05T16:29:49.200881,246.09375,118.65234375,198.73046875,-41.50390625,0.0
2024-06-05T16:29:49.204728,-937.01171875,-837.40234375,-1000.0,-1000.0,0.0
2024-06-05T16:29:49.209484,-403.3203125,-164.0625,-276.85546875,-37.59765625,0.0
2024-06-05T16:29:49.213331,-1000.0,-1000.0,-810.546875,-768.5546875,0.0
2024-06-05T16:29:49.217179,-209.47265625,-225.09765625,431.15234375,202.63671875,0.0
2024-06-05T16:29:49.221026,-842.28515625,-831.54296875,-1000.0,-1000.0,0.0
2024-06-05T16:29:49.224874,130.859375,239.74609375,-481.93359375,-277.83203125,0.0
2024-06-05T16:29:49.228721,-1000.0,-1000.0,-957.03125,-820.80078125,0.0
2024-06-05T16:29:49.232569,-247.0703125,-406.73828125,880.859375,525.87890625,0.0
2024-06-05T16:29:49.236416,-822.75390625,-861.81640625,-658.69140625,-1000.0,0.0
2024-06-05T16:29:49.240264,230.46875,340.33203125,-1000.0,-580.56640625,0.0
2024-06-05T16:29:49.244111,-1000.0,-1000.0,494.140625,969.23828125,0.0
2024-06-05T16:29:49.247959,-789.0625,-905.76171875,-801.26953125,-999.51171875,0.0
2024-06-05T16:29:49.251806,846.19140625,660.15625,33.203125,-471.6796875,0.0
2024-06-05T16:29:49.256895,653.80859375,848.6328125,-1000.0,-1000.0,0.0
2024-06-05T16:29:49.260744,-920.41015625,-709.9609375,-138.18359375,379.39453125,0.0
2024-06-05T16:29:49.264592,-1000.0,-1000.0,-781.73828125,-781.73828125,0.0
2024-06-05T16:29:49.268440,124.51171875,4.8828125,212.890625,78.125,0.0
2024-06-05T16:29:49.272289,-851.07421875,-818.359375,-1000.0,-1000.0,0.0
2024-06-05T16:29:49.276137,-213.37890625,-14.16015625,-276.3671875,-179.6875,0.0
2024-06-05T16:29:49.279986,-1000.0,-1000.0,-821.77734375,-787.59765625,0.0
2024-06-05T16:29:49.283834,-221.19140625,-237.3046875,525.87890625,216.796875,0.0
2024-06-05T16:29:49.287683,-837.890625,-828.125,-1000.0,-1000.0,0.0
2024-06-05T16:29:49.291531,241.69921875,242.1875,-588.8671875,-275.390625,0.0
2024-06-05T16:29:49.295380,-1000.0,-1000.0,945.3125,-834.47265625,0.0
2024-06-05T16:29:49.299228,-461.42578125,-547.36328125,-958.984375,613.76953125,0.0
2024-06-05T16:29:49.303855,-887.6953125,-929.19921875,-353.515625,-1000.0,0.0
2024-06-05T16:29:49.307704,313.96484375,462.890625,-1000.0,-672.8515625,0.0
2024-06-05T16:29:49.311553,-1000.0,-1000.0,219.7265625,890.13671875,0.0
2024-06-05T16:29:49.315402,-909.66796875,-1000.0,-766.11328125,-899.90234375,0.0
2024-06-05T16:29:49.319251,657.2265625,437.98828125,185.05859375,-263.18359375,0.0
2024-06-05T16:29:49.323100,811.5234375,-970.703125,-1000.0,-1000.0,0.0
2024-06-05T16:29:49.326949,-759.765625,-459.9609375,-268.06640625,185.546875,0.0
2024-06-05T16:29:49.330799,-1000.0,-1000.0,-799.8046875,-760.25390625,0.0
2024-06-05T16:29:49.334648,14.6484375,-108.3984375,225.09765625,185.546875,0.0
2024-06-05T16:29:49.338497,-836.42578125,-815.91796875,-1000.0,-1000.0,0.0
2024-06-05T16:29:49.342346,-101.07421875,116.69921875,-271.484375,-274.4140625,0.0
2024-06-05T16:29:49.346195,-1000.0,-1000.0,-845.703125,-803.22265625,0.0
2024-06-05T16:29:49.350765,-228.515625,-249.51171875,656.25,331.0546875,0.0
2024-06-05T16:29:49.354615,-834.9609375,-822.265625,-957.03125,-1000.0,0.0
2024-06-05T16:29:49.358465,242.67578125,239.74609375,-775.87890625,-379.8828125,0.0
2024-06-05T16:29:49.362314,-1000.0,-1000.0,772.4609375,-892.08984375,0.0
2024-06-05T16:29:49.366164,-560.546875,-649.90234375,-862.3046875,756.8359375,0.0
2024-06-05T16:29:49.370014,-935.546875,998.53515625,-162.59765625,-859.375,0.0
2024-06-05T16:29:49.373864,451.171875,604.98046875,-1000.0,-824.21875,0.0
2024-06-05T16:29:49.377713,-1000.0,-946.2890625,76.66015625,725.09765625,0.0
2024-06-05T16:29:49.381563,-1000.0,-1000.0,-762.20703125,-842.28515625,0.0
2024-06-05T16:29:49.385413,462.40234375,224.12109375,193.359375,-65.4296875,0.0
2024-06-05T16:29:49.389262,942.87109375,-842.7734375,-1000.0,-1000.0,0.0
2024-06-05T16:29:49.393112,-583.984375,-221.6796875,-273.92578125,-18.5546875,0.0
2024-06-05T16:29:49.397629,-1000.0,-1000.0,-806.15234375,-768.06640625,0.0
2024-06-05T16:29:49.401479,-140.13671875,-221.6796875,350.5859375,201.171875,0.0
2024-06-05T16:29:49.405329,-844.7265625,-833.0078125,-1000.0,-1000.0,0.0
2024-06-05T16:29:49.409179,20.01953125,238.28125,-431.15234375,-276.3671875,0.0
2024-06-05T16:29:49.413030,-1000.0,-1000.0,-941.40625,-811.03515625,0.0
2024-06-05T16:29:49.416880,-235.83984375,-363.76953125,856.93359375,431.15234375,0.0
2024-06-05T16:29:49.420730,-830.56640625,-847.16796875,-698.2421875,-1000.0,0.0
2024-06-05T16:29:49.424580,241.2109375,295.8984375,-965.8203125,-475.5859375,0.0
2024-06-05T16:29:49.428431,-1000.0,-1000.0,561.5234375,-973.6328125,0.0
2024-06-05T16:29:49.432281,-650.390625,-785.64453125,-811.5234375,933.59375,0.0
2024-06-05T16:29:49.436131,-995.1171875,818.84765625,-41.50390625,-561.5234375,0.0
2024-06-05T16:29:49.439981,548.33984375,791.50390625,-1000.0,-1000.0,0.0
2024-06-05T16:29:49.444446,-978.515625,-763.671875,-37.59765625,438.4765625,0.0
2024-06-05T16:29:49.448297,-1000.0,-1000.0,-768.5546875,-789.0625,0.0
2024-06-05T16:29:49.452148,253.90625,69.3359375,202.63671875,71.77734375,0.0
2024-06-05T16:29:49.455999,-938.96484375,-828.61328125,-1000.0,-1000.0,0.0
2024-06-05T16:29:49.459849,-403.80859375,-106.93359375,-277.34375,-152.34375,0.0
2024-06-05T16:29:49.463700,-1000.0,-1000.0,-818.84765625,-780.76171875,0.0
2024-06-05T16:29:49.467551,-217.28515625,-228.515625,499.0234375,213.37890625,0.0
2024-06-05T16:29:49.471401,-840.33203125,-831.0546875,-1000.0,-1000.0,0.0
2024-06-05T16:29:49.475252,237.79296875,241.2109375,-571.77734375,-275.87890625,0.0
2024-06-05T16:29:49.479103,-1000.0,-1000.0,968.75,-824.21875,0.0
2024-06-05T16:29:49.482954,-360.83984375,-466.796875,-999.51171875,544.43359375,0.0
2024-06-05T16:29:49.486804,-849.12109375,-888.18359375,-471.19140625,-1000.0,0.0
2024-06-05T16:29:49.491220,244.140625,430.6640625,-1000.0,-604.4921875,0.0
2024-06-05T16:29:49.495071,-1000.0,-1000.0,379.8828125,918.45703125,0.0
2024-06-05T16:29:49.498922,-786.1328125,-950.68359375,-781.73828125,-909.66796875,0.0
2024-06-05T16:29:49.502773,847.65625,585.9375,74.21875,-258.7890625,0.0
2024-06-05T16:29:49.506624,649.90234375,933.10546875,-1000.0,-1000.0,0.0
2024-06-05T16:29:49.510475,-907.2265625,-588.8671875,-180.6640625,185.05859375,0.0
2024-06-05T16:29:49.514327,-1000.0,-1000.0,-788.0859375,-760.7421875,0.0
2024-06-05T16:29:49.518178,11.71875,-88.8671875,217.28515625,185.546875,0.0
2024-06-05T16:29:49.522029,-843.75,-827.63671875,-1000.0,-1000.0,0.0
2024-06-05T16:29:49.525880,-123.53515625,37.109375,-275.390625,-268.06640625,0.0
2024-06-05T16:29:49.529731,-1000.0,-1000.0,-834.47265625,-800.29296875,0.0
2024-06-05T16:29:49.533582,-226.07421875,-240.234375,613.76953125,226.07421875,0.0
2024-06-05T16:29:49.537950,-833.0078125,-826.171875,-1000.0,-1000.0,0.0
2024-06-05T16:29:49.541802,241.2109375,241.69921875,-672.8515625,-275.87890625,0.0
2024-06-05T16:29:49.545653,-1000.0,-1000.0,890.13671875,-870.1171875,0.0
2024-06-05T16:29:49.549505,-463.37890625,-574.21875,-900.87890625,745.60546875,0.0
2024-06-05T16:29:49.553356,-883.7890625,-946.77734375,-261.71875,-851.07421875,0.0
2024-06-05T16:29:49.557208,336.42578125,535.15625,-1000.0,-832.51953125,0.0
2024-06-05T16:29:49.561059,-1000.0,-979.00390625,175.29296875,732.91015625,0.0
2024-06-05T16:29:49.564911,-1000.0,-1000.0,-761.23046875,-850.5859375,0.0
2024-06-05T16:29:49.568763,472.16796875,285.64453125,186.03515625,-153.3203125,0.0
2024-06-05T16:29:49.572614,882.32421875,-933.59375,-1000.0,-1000.0,0.0
2024-06-05T16:29:49.576466,-673.33984375,-390.625,-273.92578125,75.68359375,0.0
2024-06-05T16:29:49.580317,-1000.0,-1000.0,-803.22265625,-761.71875,0.0
2024-06-05T16:29:49.584639,-98.6328125,-215.33203125,330.56640625,193.359375,0.0
2024-06-05T16:29:49.588491,-834.9609375,-835.9375,-1000.0,-1000.0,0.0
2024-06-05T16:29:49.592343,13.671875,202.1484375,-379.8828125,-276.85546875,0.0
2024-06-05T16:29:49.596195,-1000.0,-1000.0,-892.08984375,-810.05859375,0.0
2024-06-05T16:29:49.600047,-236.81640625,-256.8359375,756.8359375,415.0390625,0.0
2024-06-05T16:29:49.603899,-829.58984375,-816.89453125,-858.3984375,-1000.0,0.0
2024-06-05T16:29:49.607751,241.2109375,231.4453125,-828.125,-477.05078125,0.0
2024-06-05T16:29:49.611603,-1000.0,-1000.0,730.95703125,-958.49609375,0.0
2024-06-05T16:29:49.615454,-616.2109375,-747.55859375,-850.5859375,885.25390625,0.0
2024-06-05T16:29:49.619306,-967.28515625,891.11328125,-119.140625,-670.41015625,0.0
2024-06-05T16:29:49.623158,449.21875,648.92578125,-1000.0,-969.7265625,0.0
2024-06-05T16:29:49.627010,-1000.0,-917.48046875,6.34765625,562.01171875,0.0
2024-06-05T16:29:49.631656,-1000.0,-1000.0,-768.5546875,-811.03515625,0.0
2024-06-05T16:29:49.635509,246.09375,116.69921875,200.1953125,-41.50390625,0.0
2024-06-05T16:29:49.639361,-937.01171875,-834.47265625,-1000.0,-1000.0,0.0
2024-06-05T16:29:49.643214,-403.3203125,-152.34375,-276.85546875,-37.59765625,0.0
2024-06-05T16:29:49.647066,-1000.0,-1000.0,-810.546875,-768.5546875,0.0
2024-06-05T16:29:49.650919,-209.47265625,-226.07421875,431.15234375,202.63671875,0.0
2024-06-05T16:29:49.654771,-842.7734375,-831.54296875,-1000.0,-1000.0,0.0
2024-06-05T16:29:49.658624,131.34765625,239.74609375,-480.95703125,-278.3203125,0.0
2024-06-05T16:29:49.662476,-1000.0,-1000.0,-959.9609375,-821.2890625,0.0
2024-06-05T16:29:49.666329,-256.8359375,-418.45703125,891.11328125,525.87890625,0.0
2024-06-05T16:29:49.670181,-826.171875,-866.69921875,-635.25390625,-1000.0,0.0
2024-06-05T16:29:49.674034,231.93359375,341.796875,-1000.0,-580.078125,0.0
2024-06-05T16:29:49.678626,-1000.0,-1000.0,468.26171875,969.23828125,0.0
2024-06-05T16:29:49.682479,-788.57421875,-911.1328125,-796.875,-999.51171875,0.0
2024-06-05T16:29:49.686332,845.703125,644.04296875,48.828125,-471.6796875,0.0
2024-06-05T16:29:49.690185,657.2265625,872.55859375,-1000.0,-1000.0,0.0
2024-06-05T16:29:49.694038,-917.96875,-681.640625,-149.4140625,376.953125,0.0
2024-06-05T16:29:49.697891,-1000.0,-1000.0,-782.71484375,-780.76171875,0.0
2024-06-05T16:29:49.701744,125.0,4.8828125,213.37890625,113.76953125,0.0
2024-06-05T16:29:49.705597,-851.07421875,-816.89453125,-1000.0,-1000.0,0.0
2024-06-05T16:29:49.709450,-213.37890625,-8.7890625,-275.87890625,-210.44921875,0.0
2024-06-05T16:29:49.713303,-1000.0,-1000.0,-822.265625,-791.9921875,0.0
2024-06-05T16:29:49.717156,-221.19140625,-237.79296875,525.87890625,219.7265625,0.0
2024-06-05T16:29:49.721009,-837.890625,-828.125,-1000.0,-1000.0,0.0
2024-06-05T16:29:49.725549,241.69921875,242.1875,-607.421875,-274.4140625,0.0
2024-06-05T16:29:49.729403,-1000.0,-1000.0,928.7109375,-834.47265625,0.0
2024-06-05T16:29:49.733256,-463.37890625,-555.17578125,-944.3359375,613.76953125,0.0
2024-06-05T16:29:49.737110,-886.71875,-934.5703125,-330.078125,-1000.0,0.0
2024-06-05T16:29:49.740963,346.19140625,482.421875,-1000.0,-672.36328125,0.0
2024-06-05T16:29:49.744817,-1000.0,-1000.0,201.66015625,890.13671875,0.0
2024-06-05T16:29:49.748670,-915.0390625,-1000.0,-764.16015625,-900.87890625,0.0
2024-06-05T16:29:49.752524,659.66796875,436.03515625,185.546875,-254.39453125,0.0
2024-06-05T16:29:49.756377,810.546875,-961.42578125,-1000.0,-1000.0,0.0
2024-06-05T16:29:49.760231,-759.765625,-440.91796875,-268.06640625,156.73828125,0.0
2024-06-05T16:29:49.764085,-1000.0,-1000.0,-800.78125,-762.20703125,0.0
2024-06-05T16:29:49.767938,14.6484375,-128.90625,226.5625,187.5,0.0
2024-06-05T16:29:49.772428,-836.42578125,-820.80078125,-1000.0,-1000.0,0.0
2024-06-05T16:29:49.776282,-101.5625,119.140625,-285.64453125,-273.92578125,0.0
2024-06-05T16:29:49.780136,-1000.0,-1000.0,-856.4453125,-803.22265625,0.0
2024-06-05T16:29:49.783990,-228.02734375,-249.0234375,682.12890625,331.0546875,0.0
2024-06-05T16:29:49.787844,-834.9609375,-822.75390625,-929.19921875,-1000.0,0.0
2024-06-05T16:29:49.791698,242.67578125,239.74609375,-793.9453125,-379.8828125,0.0
2024-06-05T16:29:49.795552,-1000.0,-1000.0,756.8359375,-892.08984375,0.0
2024-06-05T16:29:49.799406,-560.546875,-649.90234375,-856.4453125,756.8359375,0.0
2024-06-05T16:29:49.803260,-935.546875,997.0703125,-152.34375,-859.86328125,0.0
2024-06-05T16:29:49.807114,451.171875,616.69921875,-1000.0,-822.75390625,0.0
2024-06-05T16:29:49.810968,-1000.0,-938.4765625,75.68359375,722.16796875,0.0
2024-06-05T16:29:49.814822,-1000.0,-1000.0,-761.71875,-838.8671875,0.0
2024-06-05T16:29:49.819263,462.890625,224.609375,193.359375,-40.0390625,0.0
2024-06-05T16:29:49.823117,939.94140625,-842.7734375,-1000.0,-1000.0,0.0
2024-06-05T16:29:49.826972,-580.56640625,-221.6796875,-274.90234375,-37.109375,0.0
2024-06-05T16:29:49.830826,-1000.0,-1000.0,-807.6171875,-768.5546875,0.0
2024-06-05T16:29:49.834681,-190.4296875,-221.6796875,367.1875,202.63671875,0.0
2024-06-05T16:29:49.838535,-853.02734375,-833.0078125,-1000.0,-1000.0,0.0
2024-06-05T16:29:49.842390,58.59375,238.28125,-447.75390625,-276.3671875,0.0
2024-06-05T16:29:49.846244,-1000.0,-1000.0,-948.73046875,-811.03515625,0.0
2024-06-05T16:29:49.850099,-238.76953125,-364.74609375,868.65234375,431.15234375,0.0
2024-06-05T16:29:49.853953,-828.125,-847.16796875,-686.5234375,-1000.0,0.0
2024-06-05T16:29:49.857807,240.72265625,311.03515625,-967.28515625,-472.16796875,0.0
2024-06-05T16:29:49.861662,-1000.0,-1000.0,562.01171875,-982.421875,0.0
2024-06-05T16:29:49.866056,-650.390625,-787.59765625,-811.03515625,960.44921875,0.0
2024-06-05T16:29:49.869911,-994.140625,820.3125,-41.50390625,-508.7890625,0.0
2024-06-05T16:29:49.873766,544.43359375,790.0390625,-1000.0,-1000.0,0.0
2024-06-05T16:29:49.877621,-971.6796875,-761.23046875,-37.59765625,403.80859375,0.0
2024-06-05T16:29:49.881475,-1000.0,-1000.0,-768.5546875,-784.1796875,0.0
2024-06-05T16:29:49.885330,207.51953125,51.26953125,202.63671875,71.77734375,0.0
2024-06-05T16:29:49.889185,-942.3828125,-831.0546875,-1000.0,-1000.0,0.0
2024-06-05T16:29:49.893040,-399.90234375,-104.98046875,-277.83203125,-152.34375,0.0
2024-06-05T16:29:49.896895,-1000.0,-1000.0,-819.82421875,-780.76171875,0.0
2024-06-05T16:29:49.900750,-217.28515625,-228.515625,509.27734375,212.890625,0.0
2024-06-05T16:29:49.904605,-840.33203125,-831.0546875,-1000.0,-1000.0,0.0
2024-06-05T16:29:49.908460,238.28125,241.2109375,-577.1484375,-275.87890625,0.0
2024-06-05T16:29:49.912809,-1000.0,-1000.0,968.26171875,-828.61328125,0.0
2024-06-05T16:29:49.916664,-360.83984375,-467.28515625,-999.0234375,571.77734375,0.0
2024-06-05T16:29:49.920519,-849.12109375,-888.18359375,-471.6796875,-1000.0,0.0
2024-06-05T16:29:49.924374,244.140625,439.94140625,-1000.0,-635.7421875,0.0
2024-06-05T16:29:49.928230,-1000.0,-1000.0,379.8828125,904.296875,0.0
2024-06-05T16:29:49.932085,-786.1328125,-974.609375,-782.71484375,-904.78515625,0.0
2024-06-05T16:29:49.935940,847.65625,553.7109375,76.171875,-260.7421875,0.0
2024-06-05T16:29:49.939795,649.90234375,935.546875,-1000.0,-1000.0,0.0
2024-06-05T16:29:49.943650,-907.71484375,-587.890625,-198.2421875,185.05859375,0.0
2024-06-05T16:29:49.947506,-1000.0,-1000.0,-792.96875,-760.7421875,0.0
2024-06-05T16:29:49.951361,8.30078125,-101.5625,219.7265625,185.546875,0.0
2024-06-05T16:29:49.955216,-837.890625,-827.1484375,-1000.0,-1000.0,0.0
2024-06-05T16:29:49.959522,-101.5625,57.6171875,-274.90234375,-269.53125,0.0
2024-06-05T16:29:49.963377,-1000.0,-1000.0,-834.47265625,-801.7578125,0.0
2024-06-05T16:29:49.967233,-228.515625,-242.1875,613.76953125,250.48828125,0.0
2024-06-05T16:29:49.971089,-832.03125,-825.1953125,-1000.0,-1000.0,0.0
2024-06-05T16:29:49.974944,242.67578125,242.67578125,-672.8515625,-312.98828125,0.0
2024-06-05T16:29:49.978800,-1000.0,-1000.0,890.625,-879.8828125,0.0
2024-06-05T16:29:49.982655,-445.3125,-574.70703125,-901.85546875,750.48828125,0.0
2024-06-05T16:29:49.986511,-939.94140625,985.3515625,-259.27734375,-853.515625,0.0
2024-06-05T16:29:49.990366,248.53515625,450.1953125,-1000.0,-831.54296875,0.0
2024-06-05T16:29:49.994222,-1000.0,-967.7734375,159.1796875,732.91015625,0.0
2024-06-05T16:29:49.998077,-1000.0,-1000.0,-762.20703125,-850.5859375,0.0
2024-06-05T16:29:50.001933,457.03125,260.7421875,187.5,-153.3203125,0.0
2024-06-05T16:29:50.006542,929.6875,-912.109375,-1000.0,-1000.0,0.0
2024-06-05T16:29:50.010399,-611.81640625,-352.05078125,-273.92578125,75.68359375,0.0
2024-06-05T16:29:50.014255,-1000.0,-1000.0,-803.22265625,-761.71875,0.0
2024-06-05T16:29:50.018111,-97.65625,-217.28515625,331.0546875,192.87109375,0.0
2024-06-05T16:29:50.021967,-833.984375,-834.47265625,-1000.0,-1000.0,0.0
2024-06-05T16:29:50.025823,13.671875,215.8203125,-379.8828125,-277.34375,0.0
2024-06-05T16:29:50.029679,-1000.0,-1000.0,-892.08984375,-810.546875,0.0
2024-06-05T16:29:50.033535,-236.81640625,-274.4140625,755.37109375,431.15234375,0.0
2024-06-05T16:29:50.037391,-830.56640625,-821.2890625,-854.00390625,-1000.0,0.0
2024-06-05T16:29:50.041247,241.69921875,232.91015625,-845.21484375,-481.93359375,0.0
2024-06-05T16:29:50.045103,-1000.0,-1000.0,704.58984375,-958.0078125,0.0
2024-06-05T16:29:50.048959,-649.4140625,-762.20703125,-843.26171875,885.25390625,0.0
2024-06-05T16:29:50.053518,-991.69921875,869.140625,-95.703125,-670.41015625,0.0
2024-06-05T16:29:50.057375,506.8359375,668.9453125,-1000.0,-969.23828125,0.0
2024-06-05T16:29:50.061231,-1000.0,-900.87890625,-9.27734375,562.01171875,0.0
2024-06-05T16:29:50.065088,-1000.0,-1000.0,-769.04296875,-811.03515625,0.0
2024-06-05T16:29:50.068944,250.48828125,115.72265625,201.171875,-41.50390625,0.0
2024-06-05T16:29:50.072801,-937.98828125,-830.56640625,-1000.0,-1000.0,0.0
2024-06-05T16:29:50.076658,-402.83203125,-138.18359375,-276.3671875,-37.59765625,0.0
2024-06-05T16:29:50.080514,-1000.0,-1000.0,-810.546875,-768.5546875,0.0
2024-06-05T16:29:50.084371,-208.984375,-227.05078125,431.15234375,202.63671875,0.0
2024-06-05T16:29:50.088227,-846.19140625,-831.0546875,-1000.0,-1000.0,0.0
2024-06-05T16:29:50.092084,135.25390625,240.234375,-478.515625,-278.3203125,0.0
2024-06-05T16:29:50.095940,-1000.0,-1000.0,-966.30859375,-821.2890625,0.0
2024-06-05T16:29:50.100450,-320.80078125,-434.08203125,909.1796875,525.87890625,0.0
2024-06-05T16:29:50.104307,-847.65625,-873.53515625,-596.6796875,-1000.0,0.0
2024-06-05T16:29:50.108164,242.67578125,344.23828125,-1000.0,-580.078125,0.0
2024-06-05T16:29:50.112021,-1000.0,-1000.0,435.05859375,969.7265625,0.0
2024-06-05T16:29:50.115878,-786.62109375,-909.1796875,-791.50390625,-999.51171875,0.0
2024-06-05T16:29:50.119735,845.703125,639.6484375,57.12890625,-472.16796875,0.0
2024-06-05T16:29:50.123592,657.71484375,887.20703125,-1000.0,-1000.0,0.0
2024-06-05T16:29:50.127450,-917.96875,-662.59765625,-150.87890625,374.51171875,0.0
2024-06-05T16:29:50.131306,-1000.0,-1000.0,-781.73828125,-780.2734375,0.0
2024-06-05T16:29:50.135164,125.0,3.90625,213.37890625,145.01953125,0.0
2024-06-05T16:29:50.139020,-851.07421875,-814.453125,-1000.0,-1000.0,0.0
2024-06-05T16:29:50.142878,-213.37890625,1.46484375,-275.87890625,-244.62890625,0.0
2024-06-05T16:29:50.147340,-1000.0,-1000.0,-823.73046875,-797.36328125,0.0
2024-06-05T16:29:50.151198,-221.19140625,-238.76953125,537.59765625,223.6328125,0.0
2024-06-05T16:29:50.155055,-837.890625,-827.63671875,-1000.0,-1000.0,0.0
2024-06-05T16:29:50.158913,241.69921875,242.1875,-620.1171875,-273.92578125,0.0
2024-06-05T16:29:50.162770,-1000.0,-1000.0,916.015625,-834.47265625,0.0
2024-06-05T16:29:50.166627,-463.37890625,-561.03515625,-926.26953125,613.76953125,0.0
2024-06-05T16:29:50.170485,-886.71875,-938.4765625,-296.875,-1000.0,0.0
2024-06-05T16:29:50.174342,349.609375,500.48828125,-1000.0,-668.9453125,0.0
2024-06-05T16:29:50.178200,-1000.0,-1000.0,186.03515625,884.765625,0.0
2024-06-05T16:29:50.182057,-915.52734375,-1000.0,-761.71875,-892.08984375,0.0
2024-06-05T16:29:50.185915,660.15625,432.6171875,185.546875,-207.51953125,0.0
2024-06-05T16:29:50.189772,810.546875,-946.77734375,-1000.0,-1000.0,0.0
2024-06-05T16:29:50.194178,-759.765625,-413.57421875,-268.06640625,119.62890625,0.0
2024-06-05T16:29:50.198036,-1000.0,-1000.0,-801.7578125,-762.20703125,0.0
2024-06-05T16:29:50.201894,14.6484375,-152.83203125,228.02734375,190.4296875,0.0
2024-06-05T16:29:50.205751,-836.42578125,-826.66015625,-1000.0,-1000.0,0.0
2024-06-05T16:29:50.209609,-101.07421875,123.046875,-308.10546875,-273.92578125,0.0
2024-06-05T16:29:50.213467,-1000.0,-1000.0,-869.140625,-803.22265625,0.0
2024-06-05T16:29:50.217325,-228.02734375,-248.046875,705.078125,331.0546875,0.0
2024-06-05T16:29:50.221183,-834.9609375,-822.75390625,-903.80859375,-1000.0,0.0
2024-06-05T16:29:50.225040,242.67578125,239.74609375,-818.84765625,-378.41796875,0.0
2024-06-05T16:29:50.228898,-1000.0,-1000.0,734.375,-895.99609375,0.0
2024-06-05T16:29:50.232756,-560.05859375,-649.90234375,-851.5625,769.53125,0.0
2024-06-05T16:29:50.236614,-935.546875,997.0703125,-153.3203125,-826.66015625,0.0
2024-06-05T16:29:50.240974,450.68359375,623.046875,-1000.0,-869.140625,0.0
2024-06-05T16:29:50.244832,-1000.0,-929.19921875,75.68359375,666.015625,0.0
2024-06-05T16:29:50.248690,-1000.0,-1000.0,-761.71875,-829.58984375,0.0
2024-06-05T16:29:50.252548,462.890625,197.75390625,193.359375,-39.55078125,0.0
2024-06-05T16:29:50.256406,939.453125,-844.7265625,-1000.0,-1000.0,0.0
2024-06-05T16:29:50.260265,-580.078125,-219.23828125,-275.390625,-37.59765625,0.0
2024-06-05T16:29:50.264123,-1000.0,-1000.0,-808.59375,-768.5546875,0.0
2024-06-05T16:29:50.267981,-206.0546875,-221.19140625,384.765625,202.63671875,0.0
2024-06-05T16:29:50.271839,-850.5859375,-832.51953125,-1000.0,-1000.0,0.0
2024-06-05T16:29:50.275697,101.5625,238.28125,-462.890625,-276.3671875,0.0
2024-06-05T16:29:50.279555,-1000.0,-1000.0,-957.03125,-811.03515625,0.0
2024-06-05T16:29:50.283413,-243.65234375,-365.72265625,884.765625,431.640625,0.0
2024-06-05T16:29:50.287740,-825.68359375,-846.6796875,-669.43359375,-1000.0,0.0
2024-06-05T16:29:50.291599,240.234375,322.265625,-969.7265625,-483.88671875,0.0
2024-06-05T16:29:50.295457,-1000.0,-1000.0,562.5,-995.60546875,0.0
2024-06-05T16:29:50.299315,-650.390625,-792.96875,-812.01171875,982.91015625,0.0
2024-06-05T16:29:50.303174,-992.67578125,817.3828125,-39.55078125,-472.16796875,0.0
2024-06-05T16:29:50.307033,541.015625,789.55078125,-1000.0,-1000.0,0.0
2024-06-05T16:29:50.310891,-966.30859375,-759.765625,-54.19921875,379.39453125,0.0
2024-06-05T16:29:50.314749,-1000.0,-1000.0,-771.97265625,-780.2734375,0.0
2024-06-05T16:29:50.318608,149.90234375,39.0625,204.58984375,71.77734375,0.0
2024-06-05T16:29:50.322466,-913.57421875,-832.03125,-1000.0,-1000.0,0.0
2024-06-05T16:29:50.326325,-335.44921875,-101.07421875,-277.34375,-152.34375,0.0
2024-06-05T16:29:50.330183,-1000.0,-1000.0,-820.3125,-780.76171875,0.0
2024-06-05T16:29:50.334451,-218.26171875,-228.515625,516.6015625,213.37890625,0.0
2024-06-05T16:29:50.338310,-837.890625,-831.0546875,-1000.0,-1000.0,0.0
2024-06-05T16:29:50.342168,238.28125,241.2109375,-578.61328125,-275.87890625,0.0
2024-06-05T16:29:50.346027,-1000.0,-1000.0,968.75,-832.03125,0.0
2024-06-05T16:29:50.349886,-360.83984375,-467.28515625,-999.51171875,595.703125,0.0
2024-06-05T16:29:50.353745,-848.14453125,-887.20703125,-471.6796875,-1000.0,0.0
2024-06-05T16:29:50.357603,237.3046875,437.5,-1000.0,-658.203125,0.0
2024-06-05T16:29:50.361462,-1000.0,-1000.0,377.44140625,895.5078125,0.0
2024-06-05T16:29:50.365321,-857.421875,-995.60546875,-781.73828125,-901.85546875,0.0
2024-06-05T16:29:50.369179,754.39453125,521.484375,105.46875,-262.20703125,0.0
2024-06-05T16:29:50.373038,664.0625,939.453125,-1000.0,-1000.0,0.0
2024-06-05T16:29:50.376897,-909.66796875,-588.37890625,-217.28515625,185.05859375,0.0
2024-06-05T16:29:50.381777,-1000.0,-1000.0,-794.921875,-760.7421875,0.0
2024-06-05T16:29:50.385636,8.30078125,-103.02734375,221.19140625,185.546875,0.0
2024-06-05T16:29:50.389495,-837.890625,-825.1953125,-1000.0,-1000.0,0.0
2024-06-05T16:29:50.393355,-101.07421875,72.265625,-274.4140625,-271.484375,0.0
2024-06-05T16:29:50.397214,-1000.0,-1000.0,-834.47265625,-802.24609375,0.0
2024-06-05T16:29:50.401074,-228.02734375,-244.140625,613.76953125,288.0859375,0.0
2024-06-05T16:29:50.404933,-831.54296875,-824.70703125,-1000.0,-1000.0,0.0
2024-06-05T16:29:50.408792,241.2109375,240.72265625,-672.36328125,-347.65625,0.0
2024-06-05T16:29:50.412652,-1000.0,-1000.0,890.625,-886.71875,0.0
2024-06-05T16:29:50.416511,-465.33203125,-606.93359375,-902.34375,753.90625,0.0
2024-06-05T16:29:50.420371,-884.765625,-966.796875,-250.9765625,-855.95703125,0.0
2024-06-05T16:29:50.424230,336.9140625,539.55078125,-1000.0,-831.0546875,0.0
2024-06-05T16:29:50.428730,-1000.0,-976.5625,133.30078125,732.91015625,0.0
2024-06-05T16:29:50.432590,-1000.0,-1000.0,-764.16015625,-850.5859375,0.0
2024-06-05T16:29:50.436450,454.1015625,239.2578125,189.453125,-153.3203125,0.0
2024-06-05T16:29:50.440310,947.75390625,-895.99609375,-1000.0,-1000.0,0.0
2024-06-05T16:29:50.444170,-587.40234375,-323.73046875,-273.92578125,75.68359375,0.0
2024-06-05T16:29:50.448030,-1000.0,-1000.0,-803.22265625,-761.71875,0.0
2024-06-05T16:29:50.451889,-97.16796875,-218.26171875,330.56640625,192.87109375,0.0
2024-06-05T16:29:50.455749,-833.984375,-833.984375,-1000.0,-1000.0,0.0
2024-06-05T16:29:50.459609,13.671875,222.65625,-379.39453125,-277.34375,0.0
2024-06-05T16:29:50.463469,-1000.0,-1000.0,-893.06640625,-810.546875,0.0
2024-06-05T16:29:50.467329,-236.81640625,-297.36328125,759.27734375,431.15234375,0.0
2024-06-05T16:29:50.471189,-830.56640625,-828.125,-845.703125,-1000.0,0.0
2024-06-05T16:29:50.475644,241.69921875,235.3515625,-854.00390625,-481.93359375,0.0
2024-06-05T16:29:50.479504,-1000.0,-1000.0,687.98828125,-958.0078125,0.0
2024-06-05T16:29:50.483364,-650.390625,-773.4375,-836.42578125,885.25390625,0.0
2024-06-05T16:29:50.487224,-994.62890625,846.6796875,-66.40625,-670.41015625,0.0
2024-06-05T16:29:50.491084,546.38671875,704.58984375,-1000.0,-968.75,0.0
2024-06-05T16:29:50.494945,-979.4921875,-866.2109375,-17.578125,561.03515625,0.0
2024-06-05T16:29:50.498805,-1000.0,-1000.0,-768.06640625,-810.546875,0.0
2024-06-05T16:29:50.502665,253.41796875,115.234375,201.171875,-28.3203125,0.0
2024-06-05T16:29:50.506525,-938.96484375,-826.66015625,-1000.0,-1000.0,0.0
2024-06-05T16:29:50.510386,-402.83203125,-125.48828125,-276.3671875,-57.6171875,0.0
2024-06-05T16:29:50.514246,-1000.0,-1000.0,-811.5234375,-771.484375,0.0
2024-06-05T16:29:50.518106,-208.984375,-228.02734375,431.640625,204.58984375,0.0
2024-06-05T16:29:50.522517,-847.65625,-831.0546875,-1000.0,-1000.0,0.0
2024-06-05T16:29:50.526378,136.71875,240.72265625,-500.0,-277.83203125,0.0
2024-06-05T16:29:50.530238,-1000.0,-1000.0,-982.91015625,-821.2890625,0.0
2024-06-05T16:29:50.534099,-346.19140625,-447.265625,928.22265625,525.87890625,0.0
2024-06-05T16:29:50.537960,-856.93359375,-879.8828125,-566.89453125,-1000.0,0.0
2024-06-05T16:29:50.541820,246.58203125,364.74609375,-1000.0,-580.56640625,0.0
